%OpenBCI Raw EEG Data
%Number of channels = 4
%Sample Rate = 200.0 Hz
%First Column = SampleIndex
%Last Column = Timestamp 
%Other Columns = EEG data in microvolts followed by Accel Data (in G) interleaved with Aux Data
0, -294.92, -496.91, -73.75, -485.98, 0.000, 0.000, 0.000, 18:47:41.091, 1567561661091
1, -287.28, -488.23, -45.36, -471.49, 0.000, 0.000, 0.000, 18:47:41.102, 1567561661102
2, -302.98, -485.63, -59.18, -480.65, 0.000, 0.000, 0.000, 18:47:41.102, 1567561661102
3, -299.87, -488.65, -68.26, -485.73, 0.000, 0.000, 0.000, 18:47:41.114, 1567561661114
4, -289.97, -492.97, -50.79, -478.84, 0.000, 0.000, 0.000, 18:47:41.114, 1567561661114
5, -300.60, -485.53, -46.03, -474.42, 0.000, 0.000, 0.000, 18:47:41.125, 1567561661125
6, -292.18, -480.43, -56.87, -479.04, 0.000, 0.000, 0.000, 18:47:41.125, 1567561661125
7, -291.78, -492.30, -54.09, -474.09, 0.000, 0.000, 0.000, 18:47:41.136, 1567561661136
8, -306.99, -490.49, -46.53, -474.70, 0.000, 0.000, 0.000, 18:47:41.136, 1567561661136
9, -313.23, -491.70, -71.84, -490.20, 0.000, 0.000, 0.000, 18:47:41.147, 1567561661147
10, -299.92, -498.87, -71.38, -490.21, 0.000, 0.000, 0.000, 18:47:41.147, 1567561661147
11, -301.03, -497.88, -59.50, -483.36, 0.000, 0.000, 0.000, 18:47:41.158, 1567561661158
12, -310.70, -489.26, -65.63, -485.72, 0.000, 0.000, 0.000, 18:47:41.158, 1567561661158
13, -306.44, -496.66, -79.64, -491.10, 0.000, 0.000, 0.000, 18:47:41.169, 1567561661169
14, -295.93, -495.72, -61.03, -478.29, 0.000, 0.000, 0.000, 18:47:41.169, 1567561661169
15, -317.12, -503.37, -67.91, -488.90, 0.000, 0.000, 0.000, 18:47:41.181, 1567561661181
16, -309.09, -495.80, -74.08, -489.14, 0.000, 0.000, 0.000, 18:47:41.181, 1567561661181
17, -290.39, -487.81, -59.14, -475.84, 0.000, 0.000, 0.000, 18:47:41.181, 1567561661181
18, -304.35, -496.14, -55.22, -477.16, 0.000, 0.000, 0.000, 18:47:41.181, 1567561661181
19, -312.35, -497.35, -74.56, -495.07, 0.000, 0.000, 0.000, 18:47:41.192, 1567561661192
20, -306.16, -504.07, -76.64, -497.69, 0.000, 0.000, 0.000, 18:47:41.192, 1567561661192
21, -301.30, -498.55, -58.23, -487.77, 0.000, 0.000, 0.000, 18:47:41.203, 1567561661203
22, -312.40, -498.77, -68.95, -493.01, 0.000, 0.000, 0.000, 18:47:41.203, 1567561661203
23, -312.74, -504.26, -79.65, -493.66, 0.000, 0.000, 0.000, 18:47:41.215, 1567561661215
24, -293.31, -494.17, -59.57, -482.33, 0.000, 0.000, 0.000, 18:47:41.215, 1567561661215
25, -310.61, -498.93, -66.67, -491.31, 0.000, 0.000, 0.000, 18:47:41.226, 1567561661226
26, -303.36, -497.83, -75.94, -492.01, 0.000, 0.000, 0.000, 18:47:41.226, 1567561661226
27, -297.52, -496.71, -65.17, -480.80, 0.000, 0.000, 0.000, 18:47:41.237, 1567561661237
28, -305.99, -495.34, -58.00, -479.70, 0.000, 0.000, 0.000, 18:47:41.237, 1567561661237
29, -313.70, -494.38, -74.75, -486.28, 0.000, 0.000, 0.000, 18:47:41.248, 1567561661248
30, -291.46, -491.51, -61.21, -480.04, 0.000, 0.000, 0.000, 18:47:41.248, 1567561661248
31, -290.92, -488.15, -46.09, -463.96, 0.000, 0.000, 0.000, 18:47:41.260, 1567561661260
32, -307.12, -491.80, -61.56, -482.90, 0.000, 0.000, 0.000, 18:47:41.260, 1567561661260
33, -291.90, -485.35, -60.55, -476.24, 0.000, 0.000, 0.000, 18:47:41.271, 1567561661271
34, -280.89, -485.25, -43.37, -464.97, 0.000, 0.000, 0.000, 18:47:41.271, 1567561661271
35, -314.62, -498.82, -59.20, -481.66, 0.000, 0.000, 0.000, 18:47:41.271, 1567561661271
36, -310.19, -493.90, -77.20, -490.07, 0.000, 0.000, 0.000, 18:47:41.271, 1567561661271
37, -298.57, -501.12, -67.98, -477.62, 0.000, 0.000, 0.000, 18:47:41.282, 1567561661282
38, -305.88, -495.38, -56.38, -475.29, 0.000, 0.000, 0.000, 18:47:41.282, 1567561661282
39, -321.88, -500.25, -78.08, -490.16, 0.000, 0.000, 0.000, 18:47:41.293, 1567561661293
40, -307.64, -503.27, -74.81, -488.91, 0.000, 0.000, 0.000, 18:47:41.293, 1567561661293
41, -313.49, -505.10, -66.28, -483.95, 0.000, 0.000, 0.000, 18:47:41.305, 1567561661305
42, -325.73, -500.57, -68.60, -489.13, 0.000, 0.000, 0.000, 18:47:41.305, 1567561661305
43, -306.74, -499.26, -70.45, -484.38, 0.000, 0.000, 0.000, 18:47:41.316, 1567561661316
44, -301.87, -500.35, -64.26, -477.24, 0.000, 0.000, 0.000, 18:47:41.316, 1567561661316
45, -303.63, -486.75, -60.93, -482.45, 0.000, 0.000, 0.000, 18:47:41.327, 1567561661327
46, -310.58, -503.21, -78.64, -492.84, 0.000, 0.000, 0.000, 18:47:41.327, 1567561661327
47, -298.35, -498.75, -67.27, -487.05, 0.000, 0.000, 0.000, 18:47:41.338, 1567561661338
48, -301.74, -493.79, -57.89, -484.49, 0.000, 0.000, 0.000, 18:47:41.338, 1567561661338
49, -300.11, -488.96, -68.76, -495.01, 0.000, 0.000, 0.000, 18:47:41.350, 1567561661350
50, -298.68, -498.45, -72.66, -487.05, 0.000, 0.000, 0.000, 18:47:41.350, 1567561661350
51, -301.84, -499.91, -53.51, -478.74, 0.000, 0.000, 0.000, 18:47:41.361, 1567561661361
52, -309.31, -492.88, -61.00, -481.67, 0.000, 0.000, 0.000, 18:47:41.361, 1567561661361
53, -294.47, -486.50, -63.09, -476.03, 0.000, 0.000, 0.000, 18:47:41.361, 1567561661361
54, -296.92, -496.39, -51.18, -473.33, 0.000, 0.000, 0.000, 18:47:41.361, 1567561661361
55, -310.30, -494.27, -59.09, -477.36, 0.000, 0.000, 0.000, 18:47:41.372, 1567561661372
56, -315.05, -500.48, -77.21, -492.15, 0.000, 0.000, 0.000, 18:47:41.372, 1567561661372
57, -299.54, -499.19, -57.28, -476.05, 0.000, 0.000, 0.000, 18:47:41.383, 1567561661383
58, -302.84, -496.48, -53.44, -479.41, 0.000, 0.000, 0.000, 18:47:41.383, 1567561661383
59, -318.18, -503.00, -78.37, -490.75, 0.000, 0.000, 0.000, 18:47:41.395, 1567561661395
60, -302.32, -506.51, -74.94, -485.85, 0.000, 0.000, 0.000, 18:47:41.395, 1567561661395
61, -311.59, -511.21, -70.87, -486.81, 0.000, 0.000, 0.000, 18:47:41.406, 1567561661406
62, -318.97, -507.48, -74.38, -497.04, 0.000, 0.000, 0.000, 18:47:41.406, 1567561661406
63, -305.41, -501.53, -79.74, -495.25, 0.000, 0.000, 0.000, 18:47:41.417, 1567561661417
64, -302.52, -504.19, -62.74, -477.07, 0.000, 0.000, 0.000, 18:47:41.417, 1567561661417
65, -314.22, -503.08, -68.54, -491.45, 0.000, 0.000, 0.000, 18:47:41.428, 1567561661428
66, -308.91, -504.36, -85.87, -502.08, 0.000, 0.000, 0.000, 18:47:41.428, 1567561661428
67, -293.48, -501.51, -68.63, -484.48, 0.000, 0.000, 0.000, 18:47:41.439, 1567561661439
68, -305.05, -499.07, -63.05, -487.55, 0.000, 0.000, 0.000, 18:47:41.439, 1567561661439
69, -312.89, -496.56, -70.71, -492.77, 0.000, 0.000, 0.000, 18:47:41.451, 1567561661451
70, -299.81, -497.66, -73.88, -489.41, 0.000, 0.000, 0.000, 18:47:41.451, 1567561661451
71, -294.10, -494.66, -58.94, -478.41, 0.000, 0.000, 0.000, 18:47:41.451, 1567561661451
72, -312.95, -501.23, -69.73, -486.68, 0.000, 0.000, 0.000, 18:47:41.451, 1567561661451
73, -305.79, -500.27, -78.74, -490.99, 0.000, 0.000, 0.000, 18:47:41.462, 1567561661462
74, -286.70, -488.76, -53.67, -471.56, 0.000, 0.000, 0.000, 18:47:41.462, 1567561661462
75, -310.50, -495.45, -61.08, -483.53, 0.000, 0.000, 0.000, 18:47:41.473, 1567561661473
76, -304.19, -492.33, -76.17, -489.68, 0.000, 0.000, 0.000, 18:47:41.473, 1567561661473
77, -284.41, -493.49, -60.68, -472.71, 0.000, 0.000, 0.000, 18:47:41.485, 1567561661485
78, -292.08, -488.95, -45.34, -472.41, 0.000, 0.000, 0.000, 18:47:41.485, 1567561661485
79, -310.98, -495.84, -72.18, -490.74, 0.000, 0.000, 0.000, 18:47:41.496, 1567561661496
80, -287.62, -495.16, -69.49, -484.66, 0.000, 0.000, 0.000, 18:47:41.496, 1567561661496
81, -287.48, -491.93, -52.42, -476.07, 0.000, 0.000, 0.000, 18:47:41.507, 1567561661507
82, -298.51, -492.12, -66.05, -483.48, 0.000, 0.000, 0.000, 18:47:41.507, 1567561661507
83, -287.36, -495.20, -74.13, -488.46, 0.000, 0.000, 0.000, 18:47:41.518, 1567561661518
84, -286.11, -501.66, -60.85, -482.79, 0.000, 0.000, 0.000, 18:47:41.518, 1567561661518
85, -307.81, -505.11, -74.02, -498.57, 0.000, 0.000, 0.000, 18:47:41.530, 1567561661530
86, -305.58, -502.74, -85.73, -501.89, 0.000, 0.000, 0.000, 18:47:41.530, 1567561661530
87, -292.45, -500.98, -65.57, -481.74, 0.000, 0.000, 0.000, 18:47:41.541, 1567561661541
88, -299.10, -494.51, -54.94, -481.25, 0.000, 0.000, 0.000, 18:47:41.541, 1567561661541
89, -308.48, -496.76, -79.44, -493.93, 0.000, 0.000, 0.000, 18:47:41.541, 1567561661541
90, -295.89, -501.90, -76.80, -490.47, 0.000, 0.000, 0.000, 18:47:41.541, 1567561661541
91, -272.70, -482.37, -42.51, -468.97, 0.000, 0.000, 0.000, 18:47:41.552, 1567561661552
92, -300.36, -484.16, -58.36, -481.78, 0.000, 0.000, 0.000, 18:47:41.552, 1567561661552
93, -296.66, -491.31, -69.52, -486.15, 0.000, 0.000, 0.000, 18:47:41.563, 1567561661563
94, -287.45, -491.43, -54.16, -478.04, 0.000, 0.000, 0.000, 18:47:41.563, 1567561661563
95, -298.08, -490.76, -55.88, -483.08, 0.000, 0.000, 0.000, 18:47:41.575, 1567561661575
96, -300.84, -484.98, -69.11, -487.92, 0.000, 0.000, 0.000, 18:47:41.575, 1567561661575
97, -277.19, -481.51, -47.46, -475.90, 0.000, 0.000, 0.000, 18:47:41.586, 1567561661586
98, -287.00, -486.24, -50.60, -482.99, 0.000, 0.000, 0.000, 18:47:41.586, 1567561661586
99, -291.27, -488.90, -73.00, -493.37, 0.000, 0.000, 0.000, 18:47:41.597, 1567561661597
100, -275.70, -486.47, -69.75, -489.07, 0.000, 0.000, 0.000, 18:47:41.597, 1567561661597
101, -291.94, -503.10, -60.19, -475.26, 0.000, 0.000, 0.000, 18:47:41.608, 1567561661608
102, -302.43, -498.08, -77.70, -498.57, 0.000, 0.000, 0.000, 18:47:41.608, 1567561661608
103, -295.66, -500.50, -83.47, -504.79, 0.000, 0.000, 0.000, 18:47:41.620, 1567561661620
104, -286.25, -498.15, -56.49, -476.22, 0.000, 0.000, 0.000, 18:47:41.620, 1567561661620
105, -294.07, -493.07, -50.25, -475.78, 0.000, 0.000, 0.000, 18:47:41.631, 1567561661631
106, -305.45, -489.26, -79.30, -492.03, 0.000, 0.000, 0.000, 18:47:41.631, 1567561661631
107, -281.69, -486.87, -62.41, -479.01, 0.000, 0.000, 0.000, 18:47:41.631, 1567561661631
108, -295.08, -505.57, -57.46, -485.90, 0.000, 0.000, 0.000, 18:47:41.631, 1567561661631
109, -308.67, -493.11, -78.80, -497.66, 0.000, 0.000, 0.000, 18:47:41.642, 1567561661642
110, -298.30, -494.53, -80.68, -494.66, 0.000, 0.000, 0.000, 18:47:41.642, 1567561661642
111, -294.94, -503.13, -54.62, -478.60, 0.000, 0.000, 0.000, 18:47:41.653, 1567561661653
112, -309.18, -497.58, -63.80, -484.83, 0.000, 0.000, 0.000, 18:47:41.653, 1567561661653
113, -307.66, -496.12, -80.12, -492.97, 0.000, 0.000, 0.000, 18:47:41.665, 1567561661665
114, -293.26, -497.39, -55.81, -480.02, 0.000, 0.000, 0.000, 18:47:41.665, 1567561661665
115, -308.14, -500.39, -61.77, -487.71, 0.000, 0.000, 0.000, 18:47:41.676, 1567561661676
116, -313.98, -494.60, -78.65, -496.11, 0.000, 0.000, 0.000, 18:47:41.676, 1567561661676
117, -305.31, -503.22, -73.20, -490.24, 0.000, 0.000, 0.000, 18:47:41.687, 1567561661687
118, -307.23, -498.91, -48.47, -478.99, 0.000, 0.000, 0.000, 18:47:41.687, 1567561661687
119, -325.09, -502.20, -80.46, -501.71, 0.000, 0.000, 0.000, 18:47:41.698, 1567561661698
120, -310.56, -495.51, -70.93, -492.64, 0.000, 0.000, 0.000, 18:47:41.698, 1567561661698
121, -295.22, -496.42, -43.09, -468.50, 0.000, 0.000, 0.000, 18:47:41.710, 1567561661710
122, -314.94, -494.78, -63.32, -485.92, 0.000, 0.000, 0.000, 18:47:41.710, 1567561661710
123, -305.70, -491.48, -75.96, -489.14, 0.000, 0.000, 0.000, 18:47:41.721, 1567561661721
124, -295.68, -494.40, -56.83, -479.43, 0.000, 0.000, 0.000, 18:47:41.721, 1567561661721
125, -305.60, -494.62, -53.02, -478.68, 0.000, 0.000, 0.000, 18:47:41.721, 1567561661721
126, -313.81, -487.77, -78.57, -487.49, 0.000, 0.000, 0.000, 18:47:41.721, 1567561661721
127, -284.83, -487.95, -66.19, -481.55, 0.000, 0.000, 0.000, 18:47:41.732, 1567561661732
128, -298.61, -498.52, -51.66, -479.20, 0.000, 0.000, 0.000, 18:47:41.732, 1567561661732
129, -310.02, -488.54, -70.38, -492.43, 0.000, 0.000, 0.000, 18:47:41.743, 1567561661743
130, -297.88, -493.73, -76.45, -491.06, 0.000, 0.000, 0.000, 18:47:41.743, 1567561661743
131, -287.49, -490.96, -40.06, -470.17, 0.000, 0.000, 0.000, 18:47:41.755, 1567561661755
132, -306.71, -489.45, -52.84, -478.70, 0.000, 0.000, 0.000, 18:47:41.755, 1567561661755
133, -305.86, -493.83, -81.96, -491.94, 0.000, 0.000, 0.000, 18:47:41.766, 1567561661766
134, -296.03, -499.99, -55.40, -477.23, 0.000, 0.000, 0.000, 18:47:41.766, 1567561661766
135, -314.36, -503.00, -56.61, -474.19, 0.000, 0.000, 0.000, 18:47:41.777, 1567561661777
136, -314.97, -488.43, -76.83, -485.07, 0.000, 0.000, 0.000, 18:47:41.777, 1567561661777
137, -305.83, -507.87, -74.77, -487.08, 0.000, 0.000, 0.000, 18:47:41.788, 1567561661788
138, -300.49, -503.80, -53.62, -475.97, 0.000, 0.000, 0.000, 18:47:41.788, 1567561661788
139, -318.76, -493.32, -83.51, -497.00, 0.000, 0.000, 0.000, 18:47:41.800, 1567561661800
140, -298.52, -495.70, -77.70, -496.24, 0.000, 0.000, 0.000, 18:47:41.800, 1567561661800
141, -296.49, -504.07, -55.40, -476.64, 0.000, 0.000, 0.000, 18:47:41.811, 1567561661811
142, -316.39, -500.82, -74.31, -493.49, 0.000, 0.000, 0.000, 18:47:41.811, 1567561661811
143, -308.68, -493.14, -87.29, -497.05, 0.000, 0.000, 0.000, 18:47:41.811, 1567561661811
144, -285.80, -496.55, -56.49, -475.29, 0.000, 0.000, 0.000, 18:47:41.811, 1567561661811
145, -304.97, -494.23, -52.83, -479.40, 0.000, 0.000, 0.000, 18:47:41.822, 1567561661822
146, -311.42, -490.05, -76.02, -492.43, 0.000, 0.000, 0.000, 18:47:41.822, 1567561661822
147, -292.58, -496.45, -59.60, -476.17, 0.000, 0.000, 0.000, 18:47:41.833, 1567561661833
148, -298.17, -494.37, -50.12, -468.45, 0.000, 0.000, 0.000, 18:47:41.833, 1567561661833
149, -314.12, -493.88, -77.14, -491.54, 0.000, 0.000, 0.000, 18:47:41.856, 1567561661856
150, -298.26, -495.54, -72.46, -491.24, 0.000, 0.000, 0.000, 18:47:41.856, 1567561661856
151, -292.65, -500.72, -50.49, -469.06, 0.000, 0.000, 0.000, 18:47:41.856, 1567561661856
152, -315.91, -496.10, -67.62, -486.09, 0.000, 0.000, 0.000, 18:47:41.856, 1567561661856
153, -295.37, -484.18, -75.04, -484.32, 0.000, 0.000, 0.000, 18:47:41.867, 1567561661867
154, -290.71, -497.92, -53.63, -470.94, 0.000, 0.000, 0.000, 18:47:41.867, 1567561661867
155, -301.70, -491.49, -50.14, -476.01, 0.000, 0.000, 0.000, 18:47:41.878, 1567561661878
156, -308.31, -487.57, -75.59, -488.48, 0.000, 0.000, 0.000, 18:47:41.878, 1567561661878
157, -293.13, -493.54, -60.76, -477.05, 0.000, 0.000, 0.000, 18:47:41.890, 1567561661890
158, -302.41, -501.77, -50.77, -469.97, 0.000, 0.000, 0.000, 18:47:41.890, 1567561661890
159, -314.97, -493.40, -78.43, -493.43, 0.000, 0.000, 0.000, 18:47:41.901, 1567561661901
160, -304.22, -498.11, -76.88, -490.39, 0.000, 0.000, 0.000, 18:47:41.901, 1567561661901
161, -297.65, -501.84, -46.40, -468.91, 0.000, 0.000, 0.000, 18:47:41.901, 1567561661901
162, -318.62, -499.13, -67.40, -485.32, 0.000, 0.000, 0.000, 18:47:41.901, 1567561661901
163, -306.20, -490.70, -82.78, -496.94, 0.000, 0.000, 0.000, 18:47:41.912, 1567561661912
164, -301.95, -504.68, -54.75, -473.58, 0.000, 0.000, 0.000, 18:47:41.912, 1567561661912
165, -317.17, -507.96, -66.05, -488.85, 0.000, 0.000, 0.000, 18:47:41.923, 1567561661923
166, -316.88, -502.67, -90.80, -505.86, 0.000, 0.000, 0.000, 18:47:41.923, 1567561661923
167, -297.25, -503.30, -70.00, -494.55, 0.000, 0.000, 0.000, 18:47:41.935, 1567561661935
168, -305.61, -504.80, -56.88, -484.67, 0.000, 0.000, 0.000, 18:47:41.935, 1567561661935
169, -314.57, -500.40, -82.49, -501.43, 0.000, 0.000, 0.000, 18:47:41.946, 1567561661946
170, -297.80, -497.41, -76.37, -491.29, 0.000, 0.000, 0.000, 18:47:41.946, 1567561661946
171, -287.12, -495.08, -48.60, -471.62, 0.000, 0.000, 0.000, 18:47:41.957, 1567561661957
172, -314.50, -501.54, -74.52, -495.32, 0.000, 0.000, 0.000, 18:47:41.957, 1567561661957
173, -311.21, -500.21, -97.17, -503.66, 0.000, 0.000, 0.000, 18:47:41.971, 1567561661971
174, -291.55, -502.18, -63.98, -481.27, 0.000, 0.000, 0.000, 18:47:41.971, 1567561661971
175, -309.20, -502.20, -65.14, -487.06, 0.000, 0.000, 0.000, 18:47:41.980, 1567561661980
176, -321.98, -503.90, -94.29, -507.87, 0.000, 0.000, 0.000, 18:47:41.980, 1567561661980
177, -285.09, -485.10, -48.09, -472.75, 0.000, 0.000, 0.000, 18:47:41.991, 1567561661991
178, -314.28, -510.11, -53.46, -476.46, 0.000, 0.000, 0.000, 18:47:41.991, 1567561661991
179, -324.86, -504.43, -80.58, -499.70, 0.000, 0.000, 0.000, 18:47:41.991, 1567561661991
180, -301.52, -496.29, -77.20, -489.87, 0.000, 0.000, 0.000, 18:47:41.991, 1567561661991
181, -286.56, -496.50, -44.56, -473.07, 0.000, 0.000, 0.000, 18:47:42.002, 1567561662002
182, -307.53, -483.07, -50.04, -470.31, 0.000, 0.000, 0.000, 18:47:42.002, 1567561662002
183, -297.92, -483.22, -68.16, -490.11, 0.000, 0.000, 0.000, 18:47:42.013, 1567561662013
184, -288.43, -499.53, -60.11, -480.75, 0.000, 0.000, 0.000, 18:47:42.014, 1567561662014
185, -311.59, -497.18, -58.75, -482.23, 0.000, 0.000, 0.000, 18:47:42.025, 1567561662025
186, -317.74, -497.18, -86.28, -499.04, 0.000, 0.000, 0.000, 18:47:42.025, 1567561662025
187, -305.44, -507.27, -73.06, -501.14, 0.000, 0.000, 0.000, 18:47:42.036, 1567561662036
188, -311.40, -510.82, -60.19, -487.06, 0.000, 0.000, 0.000, 18:47:42.036, 1567561662036
189, -336.98, -511.40, -95.17, -504.17, 0.000, 0.000, 0.000, 18:47:42.047, 1567561662047
190, -297.12, -499.88, -79.34, -497.63, 0.000, 0.000, 0.000, 18:47:42.047, 1567561662047
191, -285.49, -497.29, -43.63, -482.91, 0.000, 0.000, 0.000, 18:47:42.058, 1567561662058
192, -304.22, -487.16, -61.53, -489.64, 0.000, 0.000, 0.000, 18:47:42.058, 1567561662058
193, -297.07, -488.66, -75.41, -493.30, 0.000, 0.000, 0.000, 18:47:42.070, 1567561662070
194, -292.06, -500.71, -56.62, -478.98, 0.000, 0.000, 0.000, 18:47:42.070, 1567561662070
195, -317.82, -504.81, -58.76, -486.46, 0.000, 0.000, 0.000, 18:47:42.092, 1567561662092
196, -325.59, -504.85, -92.89, -501.10, 0.000, 0.000, 0.000, 18:47:42.092, 1567561662092
197, -297.66, -497.86, -62.95, -481.98, 0.000, 0.000, 0.000, 18:47:42.103, 1567561662103
198, -299.00, -492.60, -45.50, -467.17, 0.000, 0.000, 0.000, 18:47:42.103, 1567561662103
199, -324.37, -496.08, -78.82, -495.66, 0.000, 0.000, 0.000, 18:47:42.104, 1567561662104
200, -303.24, -500.53, -81.30, -490.86, 0.000, 0.000, 0.000, 18:47:42.104, 1567561662104
0, -299.44, -505.91, -53.11, -478.60, 0.000, 0.000, 0.000, 18:47:42.104, 1567561662104
1, -319.26, -497.66, -69.92, -491.44, 0.000, 0.000, 0.000, 18:47:42.115, 1567561662115
2, -307.01, -488.71, -77.15, -494.96, 0.000, 0.000, 0.000, 18:47:42.115, 1567561662115
3, -292.01, -499.83, -49.54, -477.25, 0.000, 0.000, 0.000, 18:47:42.126, 1567561662126
4, -304.01, -489.89, -47.29, -475.25, 0.000, 0.000, 0.000, 18:47:42.126, 1567561662126
5, -301.12, -478.87, -68.36, -486.56, 0.000, 0.000, 0.000, 18:47:42.126, 1567561662126
6, -282.06, -487.56, -51.85, -478.81, 0.000, 0.000, 0.000, 18:47:42.126, 1567561662126
7, -296.39, -492.71, -41.97, -473.24, 0.000, 0.000, 0.000, 18:47:42.137, 1567561662137
8, -318.57, -491.05, -72.01, -489.36, 0.000, 0.000, 0.000, 18:47:42.137, 1567561662137
9, -281.30, -472.42, -52.12, -472.17, 0.000, 0.000, 0.000, 18:47:42.148, 1567561662148
10, -274.57, -481.26, -29.00, -461.20, 0.000, 0.000, 0.000, 18:47:42.148, 1567561662148
11, -320.44, -497.76, -66.96, -486.65, 0.000, 0.000, 0.000, 18:47:42.160, 1567561662160
12, -304.99, -490.99, -74.87, -492.94, 0.000, 0.000, 0.000, 18:47:42.160, 1567561662160
13, -281.74, -485.23, -45.99, -464.02, 0.000, 0.000, 0.000, 18:47:42.171, 1567561662171
14, -315.83, -500.08, -57.78, -475.11, 0.000, 0.000, 0.000, 18:47:42.171, 1567561662171
15, -305.18, -481.45, -69.65, -483.29, 0.000, 0.000, 0.000, 18:47:42.182, 1567561662182
16, -285.47, -491.56, -57.64, -476.82, 0.000, 0.000, 0.000, 18:47:42.182, 1567561662182
17, -295.17, -495.03, -43.25, -472.85, 0.000, 0.000, 0.000, 18:47:42.193, 1567561662193
18, -317.40, -495.27, -75.45, -492.19, 0.000, 0.000, 0.000, 18:47:42.193, 1567561662193
19, -296.92, -497.22, -69.83, -485.08, 0.000, 0.000, 0.000, 18:47:42.205, 1567561662205
20, -287.88, -501.10, -54.02, -477.58, 0.000, 0.000, 0.000, 18:47:42.205, 1567561662205
21, -310.28, -494.55, -63.94, -485.14, 0.000, 0.000, 0.000, 18:47:42.216, 1567561662216
22, -296.74, -488.05, -74.62, -490.91, 0.000, 0.000, 0.000, 18:47:42.216, 1567561662216
23, -278.70, -491.05, -50.17, -477.42, 0.000, 0.000, 0.000, 18:47:42.216, 1567561662216
24, -306.46, -499.67, -57.91, -486.49, 0.000, 0.000, 0.000, 18:47:42.216, 1567561662216
25, -306.87, -491.26, -77.80, -499.65, 0.000, 0.000, 0.000, 18:47:42.227, 1567561662227
26, -289.31, -498.34, -63.22, -479.12, 0.000, 0.000, 0.000, 18:47:42.227, 1567561662227
27, -293.14, -497.38, -51.23, -480.53, 0.000, 0.000, 0.000, 18:47:42.238, 1567561662238
28, -295.26, -483.40, -74.15, -494.40, 0.000, 0.000, 0.000, 18:47:42.238, 1567561662238
29, -295.30, -498.17, -74.97, -491.15, 0.000, 0.000, 0.000, 18:47:42.250, 1567561662250
30, -280.56, -491.29, -40.54, -470.06, 0.000, 0.000, 0.000, 18:47:42.250, 1567561662250
31, -304.24, -490.12, -58.71, -484.98, 0.000, 0.000, 0.000, 18:47:42.261, 1567561662261
32, -300.26, -486.86, -76.53, -489.53, 0.000, 0.000, 0.000, 18:47:42.261, 1567561662261
33, -278.64, -487.64, -40.14, -463.63, 0.000, 0.000, 0.000, 18:47:42.272, 1567561662272
34, -300.41, -488.58, -46.52, -473.90, 0.000, 0.000, 0.000, 18:47:42.272, 1567561662272
35, -303.66, -481.21, -69.27, -484.26, 0.000, 0.000, 0.000, 18:47:42.283, 1567561662283
36, -280.61, -482.99, -45.71, -466.59, 0.000, 0.000, 0.000, 18:47:42.283, 1567561662283
37, -296.85, -494.16, -38.68, -464.06, 0.000, 0.000, 0.000, 18:47:42.295, 1567561662295
38, -320.96, -493.02, -81.05, -498.62, 0.000, 0.000, 0.000, 18:47:42.295, 1567561662295
39, -299.16, -493.75, -75.74, -492.13, 0.000, 0.000, 0.000, 18:47:42.306, 1567561662306
40, -292.00, -498.12, -44.21, -474.57, 0.000, 0.000, 0.000, 18:47:42.306, 1567561662306
41, -309.96, -492.80, -63.57, -488.14, 0.000, 0.000, 0.000, 18:47:42.307, 1567561662307
42, -304.81, -493.46, -74.94, -494.36, 0.000, 0.000, 0.000, 18:47:42.307, 1567561662307
43, -281.77, -494.30, -52.87, -476.21, 0.000, 0.000, 0.000, 18:47:42.317, 1567561662317
44, -303.49, -491.62, -60.21, -481.10, 0.000, 0.000, 0.000, 18:47:42.317, 1567561662317
45, -318.24, -496.89, -84.40, -496.01, 0.000, 0.000, 0.000, 18:47:42.328, 1567561662328
46, -296.64, -502.80, -66.85, -480.78, 0.000, 0.000, 0.000, 18:47:42.328, 1567561662328
47, -303.35, -500.20, -51.91, -476.92, 0.000, 0.000, 0.000, 18:47:42.340, 1567561662340
48, -313.35, -487.73, -72.32, -484.14, 0.000, 0.000, 0.000, 18:47:42.340, 1567561662340
49, -303.37, -501.20, -79.71, -495.05, 0.000, 0.000, 0.000, 18:47:42.351, 1567561662351
50, -292.70, -492.17, -45.02, -472.21, 0.000, 0.000, 0.000, 18:47:42.351, 1567561662351
51, -322.19, -499.13, -74.84, -498.20, 0.000, 0.000, 0.000, 18:47:42.362, 1567561662362
52, -309.75, -497.51, -85.88, -500.46, 0.000, 0.000, 0.000, 18:47:42.362, 1567561662362
53, -287.81, -495.24, -49.96, -475.88, 0.000, 0.000, 0.000, 18:47:42.373, 1567561662373
54, -309.90, -494.64, -56.60, -484.03, 0.000, 0.000, 0.000, 18:47:42.373, 1567561662373
55, -309.82, -489.96, -83.84, -498.47, 0.000, 0.000, 0.000, 18:47:42.385, 1567561662385
56, -290.21, -498.16, -65.26, -484.77, 0.000, 0.000, 0.000, 18:47:42.385, 1567561662385
57, -296.06, -500.00, -48.13, -475.86, 0.000, 0.000, 0.000, 18:47:42.396, 1567561662396
58, -319.19, -498.63, -83.91, -496.52, 0.000, 0.000, 0.000, 18:47:42.396, 1567561662396
59, -299.83, -497.36, -71.48, -482.08, 0.000, 0.000, 0.000, 18:47:42.396, 1567561662396
60, -291.53, -498.15, -49.20, -468.98, 0.000, 0.000, 0.000, 18:47:42.396, 1567561662396
61, -317.59, -495.30, -70.35, -483.55, 0.000, 0.000, 0.000, 18:47:42.407, 1567561662407
62, -314.24, -494.70, -85.90, -496.46, 0.000, 0.000, 0.000, 18:47:42.407, 1567561662407
63, -297.23, -502.10, -49.86, -478.34, 0.000, 0.000, 0.000, 18:47:42.418, 1567561662418
64, -315.92, -500.21, -61.66, -485.65, 0.000, 0.000, 0.000, 18:47:42.418, 1567561662418
65, -315.64, -489.35, -83.88, -491.72, 0.000, 0.000, 0.000, 18:47:42.430, 1567561662430
66, -292.75, -492.72, -60.06, -474.95, 0.000, 0.000, 0.000, 18:47:42.430, 1567561662430
67, -307.27, -494.77, -52.90, -483.22, 0.000, 0.000, 0.000, 18:47:42.441, 1567561662441
68, -322.60, -492.93, -80.18, -501.45, 0.000, 0.000, 0.000, 18:47:42.441, 1567561662441
69, -302.88, -495.92, -74.25, -487.05, 0.000, 0.000, 0.000, 18:47:42.452, 1567561662452
70, -301.52, -500.26, -52.81, -474.60, 0.000, 0.000, 0.000, 18:47:42.452, 1567561662452
71, -319.04, -496.67, -67.76, -477.47, 0.000, 0.000, 0.000, 18:47:42.463, 1567561662463
72, -298.79, -485.15, -77.94, -482.52, 0.000, 0.000, 0.000, 18:47:42.463, 1567561662463
73, -295.04, -504.91, -58.83, -475.01, 0.000, 0.000, 0.000, 18:47:42.475, 1567561662475
74, -306.78, -500.40, -59.87, -475.71, 0.000, 0.000, 0.000, 18:47:42.475, 1567561662475
75, -316.23, -504.98, -96.37, -507.15, 0.000, 0.000, 0.000, 18:47:42.486, 1567561662486
76, -303.61, -510.79, -77.45, -494.37, 0.000, 0.000, 0.000, 18:47:42.486, 1567561662486
77, -316.00, -515.27, -69.72, -483.79, 0.000, 0.000, 0.000, 18:47:42.486, 1567561662486
78, -328.06, -507.96, -87.90, -498.30, 0.000, 0.000, 0.000, 18:47:42.486, 1567561662486
79, -304.10, -503.54, -80.02, -491.04, 0.000, 0.000, 0.000, 18:47:42.497, 1567561662497
80, -289.15, -492.70, -40.92, -461.26, 0.000, 0.000, 0.000, 18:47:42.497, 1567561662497
81, -328.42, -496.17, -70.28, -488.72, 0.000, 0.000, 0.000, 18:47:42.508, 1567561662508
82, -313.04, -495.25, -85.69, -502.19, 0.000, 0.000, 0.000, 18:47:42.508, 1567561662508
83, -295.67, -492.75, -53.06, -484.29, 0.000, 0.000, 0.000, 18:47:42.520, 1567561662520
84, -315.93, -498.22, -60.32, -489.41, 0.000, 0.000, 0.000, 18:47:42.520, 1567561662520
85, -314.51, -488.63, -82.67, -500.53, 0.000, 0.000, 0.000, 18:47:42.531, 1567561662531
86, -291.50, -495.79, -63.67, -485.22, 0.000, 0.000, 0.000, 18:47:42.531, 1567561662531
87, -306.76, -499.51, -52.99, -476.84, 0.000, 0.000, 0.000, 18:47:42.542, 1567561662542
88, -319.01, -494.50, -79.19, -498.16, 0.000, 0.000, 0.000, 18:47:42.542, 1567561662542
89, -296.30, -493.58, -79.82, -492.92, 0.000, 0.000, 0.000, 18:47:42.553, 1567561662553
90, -280.35, -487.84, -41.91, -467.32, 0.000, 0.000, 0.000, 18:47:42.553, 1567561662553
91, -312.03, -487.90, -66.44, -483.85, 0.000, 0.000, 0.000, 18:47:42.565, 1567561662565
92, -300.82, -489.52, -82.79, -497.72, 0.000, 0.000, 0.000, 18:47:42.565, 1567561662565
93, -282.81, -488.20, -43.76, -467.92, 0.000, 0.000, 0.000, 18:47:42.576, 1567561662576
94, -306.97, -493.89, -53.66, -474.11, 0.000, 0.000, 0.000, 18:47:42.576, 1567561662576
95, -314.17, -489.50, -76.82, -486.37, 0.000, 0.000, 0.000, 18:47:42.576, 1567561662576
96, -292.02, -490.90, -58.81, -475.90, 0.000, 0.000, 0.000, 18:47:42.576, 1567561662576
97, -302.81, -495.07, -50.19, -470.80, 0.000, 0.000, 0.000, 18:47:42.587, 1567561662587
98, -317.28, -494.06, -78.32, -492.95, 0.000, 0.000, 0.000, 18:47:42.587, 1567561662587
99, -289.74, -489.57, -65.32, -483.07, 0.000, 0.000, 0.000, 18:47:42.599, 1567561662599
100, -289.48, -496.65, -50.55, -469.30, 0.000, 0.000, 0.000, 18:47:42.599, 1567561662599
101, -312.29, -494.10, -76.21, -491.44, 0.000, 0.000, 0.000, 18:47:42.610, 1567561662610
102, -305.59, -493.88, -83.55, -498.81, 0.000, 0.000, 0.000, 18:47:42.610, 1567561662610
103, -288.18, -501.25, -57.85, -483.43, 0.000, 0.000, 0.000, 18:47:42.621, 1567561662621
104, -308.04, -499.53, -62.77, -487.44, 0.000, 0.000, 0.000, 18:47:42.621, 1567561662621
105, -313.81, -495.81, -90.23, -503.82, 0.000, 0.000, 0.000, 18:47:42.632, 1567561662632
106, -280.59, -493.12, -60.88, -484.38, 0.000, 0.000, 0.000, 18:47:42.632, 1567561662632
107, -292.78, -489.48, -47.81, -475.14, 0.000, 0.000, 0.000, 18:47:42.644, 1567561662644
108, -312.66, -495.65, -81.64, -497.20, 0.000, 0.000, 0.000, 18:47:42.644, 1567561662644
109, -294.21, -495.42, -70.61, -491.07, 0.000, 0.000, 0.000, 18:47:42.655, 1567561662655
110, -287.90, -496.74, -44.69, -467.69, 0.000, 0.000, 0.000, 18:47:42.655, 1567561662655
111, -313.39, -498.65, -73.51, -494.59, 0.000, 0.000, 0.000, 18:47:42.666, 1567561662666
112, -303.37, -497.95, -82.49, -492.78, 0.000, 0.000, 0.000, 18:47:42.666, 1567561662666
113, -293.32, -502.06, -55.17, -471.83, 0.000, 0.000, 0.000, 18:47:42.666, 1567561662666
114, -313.62, -495.36, -55.05, -478.49, 0.000, 0.000, 0.000, 18:47:42.666, 1567561662666
115, -311.20, -489.04, -78.96, -493.24, 0.000, 0.000, 0.000, 18:47:42.677, 1567561662677
116, -287.58, -487.80, -49.14, -470.36, 0.000, 0.000, 0.000, 18:47:42.677, 1567561662677
117, -293.59, -486.51, -37.84, -464.19, 0.000, 0.000, 0.000, 18:47:42.688, 1567561662688
118, -307.39, -485.76, -68.77, -486.99, 0.000, 0.000, 0.000, 18:47:42.688, 1567561662688
119, -295.81, -492.17, -73.38, -495.78, 0.000, 0.000, 0.000, 18:47:42.700, 1567561662700
120, -284.90, -489.72, -47.02, -474.81, 0.000, 0.000, 0.000, 18:47:42.700, 1567561662700
121, -313.84, -490.62, -68.40, -486.91, 0.000, 0.000, 0.000, 18:47:42.711, 1567561662711
122, -311.91, -501.09, -88.75, -504.36, 0.000, 0.000, 0.000, 18:47:42.711, 1567561662711
123, -299.32, -509.83, -63.39, -486.85, 0.000, 0.000, 0.000, 18:47:42.722, 1567561662722
124, -314.15, -501.48, -70.67, -488.42, 0.000, 0.000, 0.000, 18:47:42.722, 1567561662722
125, -319.46, -499.74, -90.68, -501.69, 0.000, 0.000, 0.000, 18:47:42.733, 1567561662733
126, -295.36, -501.93, -64.71, -482.03, 0.000, 0.000, 0.000, 18:47:42.733, 1567561662733
127, -305.60, -502.61, -54.68, -475.22, 0.000, 0.000, 0.000, 18:47:42.745, 1567561662745
128, -314.51, -491.85, -79.49, -491.03, 0.000, 0.000, 0.000, 18:47:42.745, 1567561662745
129, -300.60, -500.73, -74.12, -486.19, 0.000, 0.000, 0.000, 18:47:42.756, 1567561662756
130, -292.45, -501.01, -50.86, -474.20, 0.000, 0.000, 0.000, 18:47:42.756, 1567561662756
131, -318.76, -495.60, -77.98, -492.46, 0.000, 0.000, 0.000, 18:47:42.756, 1567561662756
132, -308.66, -495.56, -81.15, -493.72, 0.000, 0.000, 0.000, 18:47:42.756, 1567561662756
133, -291.53, -497.39, -48.71, -468.21, 0.000, 0.000, 0.000, 18:47:42.767, 1567561662767
134, -306.96, -492.43, -52.44, -467.64, 0.000, 0.000, 0.000, 18:47:42.767, 1567561662767
135, -307.02, -488.38, -78.00, -491.31, 0.000, 0.000, 0.000, 18:47:42.778, 1567561662778
136, -291.87, -499.26, -61.47, -480.32, 0.000, 0.000, 0.000, 18:47:42.778, 1567561662778
137, -303.23, -498.84, -50.69, -475.50, 0.000, 0.000, 0.000, 18:47:42.790, 1567561662790
138, -317.21, -496.97, -83.00, -503.01, 0.000, 0.000, 0.000, 18:47:42.790, 1567561662790
139, -299.46, -502.70, -80.71, -493.79, 0.000, 0.000, 0.000, 18:47:42.801, 1567561662801
140, -287.72, -500.14, -55.71, -483.09, 0.000, 0.000, 0.000, 18:47:42.801, 1567561662801
141, -316.13, -497.94, -81.53, -497.35, 0.000, 0.000, 0.000, 18:47:42.812, 1567561662812
142, -303.46, -491.26, -89.39, -505.67, 0.000, 0.000, 0.000, 18:47:42.812, 1567561662812
143, -292.84, -505.74, -66.36, -495.34, 0.000, 0.000, 0.000, 18:47:42.823, 1567561662823
144, -312.36, -500.22, -68.51, -494.87, 0.000, 0.000, 0.000, 18:47:42.823, 1567561662823
145, -319.20, -498.56, -94.68, -505.83, 0.000, 0.000, 0.000, 18:47:42.835, 1567561662835
146, -288.46, -494.96, -62.54, -479.52, 0.000, 0.000, 0.000, 18:47:42.835, 1567561662835
147, -296.83, -495.77, -52.17, -467.55, 0.000, 0.000, 0.000, 18:47:42.846, 1567561662846
148, -322.09, -502.64, -93.95, -503.43, 0.000, 0.000, 0.000, 18:47:42.846, 1567561662846
149, -301.88, -504.07, -83.21, -494.29, 0.000, 0.000, 0.000, 18:47:42.846, 1567561662846
150, -296.28, -504.93, -55.31, -472.93, 0.000, 0.000, 0.000, 18:47:42.846, 1567561662846
151, -320.86, -502.04, -78.02, -483.73, 0.000, 0.000, 0.000, 18:47:42.857, 1567561662857
152, -310.17, -498.77, -88.25, -493.71, 0.000, 0.000, 0.000, 18:47:42.857, 1567561662857
153, -293.89, -500.03, -56.13, -471.87, 0.000, 0.000, 0.000, 18:47:42.868, 1567561662868
154, -312.65, -498.46, -62.15, -475.25, 0.000, 0.000, 0.000, 18:47:42.868, 1567561662868
155, -320.71, -497.93, -90.58, -497.39, 0.000, 0.000, 0.000, 18:47:42.880, 1567561662880
156, -292.85, -493.33, -57.01, -473.65, 0.000, 0.000, 0.000, 18:47:42.880, 1567561662880
157, -305.97, -501.84, -54.54, -474.67, 0.000, 0.000, 0.000, 18:47:42.891, 1567561662891
158, -318.16, -497.80, -81.90, -498.90, 0.000, 0.000, 0.000, 18:47:42.891, 1567561662891
159, -296.44, -493.33, -72.23, -491.58, 0.000, 0.000, 0.000, 18:47:42.902, 1567561662902
160, -290.87, -495.36, -46.60, -474.49, 0.000, 0.000, 0.000, 18:47:42.902, 1567561662902
161, -315.99, -498.12, -76.42, -492.87, 0.000, 0.000, 0.000, 18:47:42.913, 1567561662913
162, -305.54, -493.34, -78.13, -495.17, 0.000, 0.000, 0.000, 18:47:42.913, 1567561662913
163, -291.26, -497.62, -54.79, -477.10, 0.000, 0.000, 0.000, 18:47:42.925, 1567561662925
164, -319.81, -502.63, -67.73, -490.22, 0.000, 0.000, 0.000, 18:47:42.925, 1567561662925
165, -323.69, -497.63, -93.65, -503.73, 0.000, 0.000, 0.000, 18:47:42.936, 1567561662936
166, -294.67, -505.07, -67.87, -489.76, 0.000, 0.000, 0.000, 18:47:42.936, 1567561662936
167, -296.65, -495.07, -48.06, -469.02, 0.000, 0.000, 0.000, 18:47:42.937, 1567561662937
168, -315.66, -492.32, -81.49, -492.00, 0.000, 0.000, 0.000, 18:47:42.937, 1567561662937
169, -302.91, -502.09, -75.94, -485.57, 0.000, 0.000, 0.000, 18:47:42.947, 1567561662947
170, -294.02, -493.56, -46.28, -459.56, 0.000, 0.000, 0.000, 18:47:42.947, 1567561662947
171, -316.13, -493.02, -66.03, -480.76, 0.000, 0.000, 0.000, 18:47:42.958, 1567561662958
172, -313.30, -496.27, -83.72, -490.58, 0.000, 0.000, 0.000, 18:47:42.958, 1567561662958
173, -289.76, -497.63, -49.14, -467.30, 0.000, 0.000, 0.000, 18:47:42.970, 1567561662970
174, -314.01, -499.13, -60.40, -473.75, 0.000, 0.000, 0.000, 18:47:42.970, 1567561662970
175, -316.37, -495.65, -85.05, -492.51, 0.000, 0.000, 0.000, 18:47:42.981, 1567561662981
176, -298.73, -504.64, -70.15, -480.93, 0.000, 0.000, 0.000, 18:47:42.981, 1567561662981
177, -299.74, -499.89, -52.41, -476.08, 0.000, 0.000, 0.000, 18:47:42.992, 1567561662992
178, -315.55, -493.96, -78.81, -500.84, 0.000, 0.000, 0.000, 18:47:42.992, 1567561662992
179, -296.43, -500.55, -78.38, -499.43, 0.000, 0.000, 0.000, 18:47:43.003, 1567561663003
180, -290.64, -498.66, -48.91, -479.43, 0.000, 0.000, 0.000, 18:47:43.003, 1567561663003
181, -313.11, -496.71, -76.94, -495.17, 0.000, 0.000, 0.000, 18:47:43.015, 1567561663015
182, -304.03, -489.79, -78.03, -500.26, 0.000, 0.000, 0.000, 18:47:43.015, 1567561663015
183, -288.48, -488.83, -44.36, -470.31, 0.000, 0.000, 0.000, 18:47:43.026, 1567561663026
184, -313.38, -495.24, -58.89, -483.95, 0.000, 0.000, 0.000, 18:47:43.026, 1567561663026
185, -313.77, -492.07, -80.84, -498.16, 0.000, 0.000, 0.000, 18:47:43.026, 1567561663026
186, -291.87, -492.62, -58.24, -479.68, 0.000, 0.000, 0.000, 18:47:43.026, 1567561663026
187, -299.62, -492.60, -44.79, -463.33, 0.000, 0.000, 0.000, 18:47:43.037, 1567561663037
188, -326.58, -496.62, -84.49, -502.60, 0.000, 0.000, 0.000, 18:47:43.037, 1567561663037
189, -297.35, -499.65, -74.97, -489.48, 0.000, 0.000, 0.000, 18:47:43.048, 1567561663048
190, -300.89, -502.64, -56.18, -477.44, 0.000, 0.000, 0.000, 18:47:43.048, 1567561663048
191, -322.28, -497.75, -77.15, -492.57, 0.000, 0.000, 0.000, 18:47:43.060, 1567561663060
192, -298.59, -493.38, -76.72, -490.46, 0.000, 0.000, 0.000, 18:47:43.060, 1567561663060
193, -288.22, -499.29, -45.93, -468.87, 0.000, 0.000, 0.000, 18:47:43.071, 1567561663071
194, -319.82, -507.42, -63.50, -487.73, 0.000, 0.000, 0.000, 18:47:43.071, 1567561663071
195, -325.44, -506.26, -94.24, -504.05, 0.000, 0.000, 0.000, 18:47:43.082, 1567561663082
196, -297.69, -507.04, -68.13, -485.67, 0.000, 0.000, 0.000, 18:47:43.082, 1567561663082
197, -306.94, -503.71, -58.43, -482.68, 0.000, 0.000, 0.000, 18:47:43.093, 1567561663093
198, -314.40, -500.58, -92.58, -500.54, 0.000, 0.000, 0.000, 18:47:43.093, 1567561663093
199, -293.11, -501.03, -79.79, -485.89, 0.000, 0.000, 0.000, 18:47:43.105, 1567561663105
200, -291.70, -504.03, -55.67, -470.90, 0.000, 0.000, 0.000, 18:47:43.105, 1567561663105
0, -322.72, -501.78, -78.90, -494.93, 0.000, 0.000, 0.000, 18:47:43.105, 1567561663105
1, -312.32, -500.74, -89.25, -497.72, 0.000, 0.000, 0.000, 18:47:43.116, 1567561663116
2, -291.05, -506.25, -63.25, -484.11, 0.000, 0.000, 0.000, 18:47:43.116, 1567561663116
3, -306.40, -496.87, -62.90, -485.68, 0.000, 0.000, 0.000, 18:47:43.127, 1567561663127
4, -313.68, -492.58, -85.17, -504.00, 0.000, 0.000, 0.000, 18:47:43.127, 1567561663127
5, -291.71, -492.49, -56.92, -481.15, 0.000, 0.000, 0.000, 18:47:43.138, 1567561663138
6, -293.14, -490.24, -42.97, -468.18, 0.000, 0.000, 0.000, 18:47:43.138, 1567561663138
7, -311.74, -488.55, -69.59, -487.13, 0.000, 0.000, 0.000, 18:47:43.149, 1567561663149
8, -290.21, -483.08, -58.48, -481.79, 0.000, 0.000, 0.000, 18:47:43.149, 1567561663149
9, -289.89, -488.03, -36.46, -465.05, 0.000, 0.000, 0.000, 18:47:43.161, 1567561663161
10, -320.04, -490.46, -65.44, -488.63, 0.000, 0.000, 0.000, 18:47:43.161, 1567561663161
11, -301.93, -485.04, -74.00, -491.37, 0.000, 0.000, 0.000, 18:47:43.161, 1567561663161
12, -288.95, -492.61, -44.75, -467.12, 0.000, 0.000, 0.000, 18:47:43.161, 1567561663161
13, -311.07, -494.44, -55.30, -474.21, 0.000, 0.000, 0.000, 18:47:43.172, 1567561663172
14, -320.19, -492.48, -80.67, -484.31, 0.000, 0.000, 0.000, 18:47:43.172, 1567561663172
15, -297.92, -501.54, -61.53, -477.56, 0.000, 0.000, 0.000, 18:47:43.183, 1567561663183
16, -309.63, -501.78, -59.74, -472.77, 0.000, 0.000, 0.000, 18:47:43.183, 1567561663183
17, -317.28, -492.88, -79.24, -491.68, 0.000, 0.000, 0.000, 18:47:43.195, 1567561663195
18, -302.97, -505.44, -79.97, -492.43, 0.000, 0.000, 0.000, 18:47:43.195, 1567561663195
19, -300.24, -502.28, -56.05, -470.17, 0.000, 0.000, 0.000, 18:47:43.206, 1567561663206
20, -322.63, -500.69, -69.87, -479.65, 0.000, 0.000, 0.000, 18:47:43.206, 1567561663206
21, -315.49, -504.25, -86.92, -498.70, 0.000, 0.000, 0.000, 18:47:43.217, 1567561663217
22, -295.43, -507.92, -56.76, -477.73, 0.000, 0.000, 0.000, 18:47:43.217, 1567561663217
23, -314.85, -503.90, -68.10, -487.88, 0.000, 0.000, 0.000, 18:47:43.229, 1567561663229
24, -315.57, -498.62, -88.82, -496.46, 0.000, 0.000, 0.000, 18:47:43.229, 1567561663229
25, -290.69, -497.66, -60.77, -482.63, 0.000, 0.000, 0.000, 18:47:43.239, 1567561663239
26, -300.22, -493.08, -47.90, -476.65, 0.000, 0.000, 0.000, 18:47:43.239, 1567561663239
27, -317.34, -492.10, -80.09, -495.91, 0.000, 0.000, 0.000, 18:47:43.251, 1567561663251
28, -300.03, -493.49, -66.88, -481.30, 0.000, 0.000, 0.000, 18:47:43.251, 1567561663251
29, -297.23, -496.65, -46.43, -473.38, 0.000, 0.000, 0.000, 18:47:43.251, 1567561663251
30, -320.30, -495.76, -73.33, -487.03, 0.000, 0.000, 0.000, 18:47:43.251, 1567561663251
31, -305.35, -496.91, -82.80, -496.72, 0.000, 0.000, 0.000, 18:47:43.262, 1567561663262
32, -293.20, -503.54, -55.18, -481.49, 0.000, 0.000, 0.000, 18:47:43.262, 1567561663262
33, -309.82, -503.31, -68.43, -484.65, 0.000, 0.000, 0.000, 18:47:43.273, 1567561663273
34, -315.07, -498.49, -91.70, -503.42, 0.000, 0.000, 0.000, 18:47:43.273, 1567561663273
35, -296.07, -503.00, -67.01, -480.97, 0.000, 0.000, 0.000, 18:47:43.285, 1567561663285
36, -305.35, -503.34, -51.78, -472.92, 0.000, 0.000, 0.000, 18:47:43.285, 1567561663285
37, -319.57, -495.18, -74.80, -483.97, 0.000, 0.000, 0.000, 18:47:43.296, 1567561663296
38, -304.83, -500.56, -69.42, -484.29, 0.000, 0.000, 0.000, 18:47:43.296, 1567561663296
39, -295.56, -498.29, -40.78, -467.67, 0.000, 0.000, 0.000, 18:47:43.307, 1567561663307
40, -319.55, -496.53, -71.34, -493.07, 0.000, 0.000, 0.000, 18:47:43.307, 1567561663307
41, -311.26, -494.51, -75.28, -490.14, 0.000, 0.000, 0.000, 18:47:43.318, 1567561663318
42, -295.76, -497.18, -50.31, -473.01, 0.000, 0.000, 0.000, 18:47:43.318, 1567561663318
43, -312.07, -493.48, -59.60, -484.55, 0.000, 0.000, 0.000, 18:47:43.329, 1567561663329
44, -312.69, -491.15, -81.82, -497.39, 0.000, 0.000, 0.000, 18:47:43.329, 1567561663329
45, -295.95, -496.64, -63.51, -489.14, 0.000, 0.000, 0.000, 18:47:43.341, 1567561663341
46, -303.63, -496.02, -56.01, -484.07, 0.000, 0.000, 0.000, 18:47:43.341, 1567561663341
47, -311.06, -490.61, -83.86, -506.35, 0.000, 0.000, 0.000, 18:47:43.341, 1567561663341
48, -291.88, -489.46, -70.42, -496.05, 0.000, 0.000, 0.000, 18:47:43.341, 1567561663341
49, -300.82, -497.96, -60.00, -494.61, 0.000, 0.000, 0.000, 18:47:43.352, 1567561663352
50, -314.35, -494.49, -79.22, -503.14, 0.000, 0.000, 0.000, 18:47:43.352, 1567561663352
51, -307.30, -494.51, -80.71, -495.81, 0.000, 0.000, 0.000, 18:47:43.363, 1567561663363
52, -284.60, -493.58, -50.49, -473.98, 0.000, 0.000, 0.000, 18:47:43.363, 1567561663363
53, -314.06, -495.05, -61.56, -485.91, 0.000, 0.000, 0.000, 18:47:43.375, 1567561663375
54, -313.62, -493.93, -80.82, -487.31, 0.000, 0.000, 0.000, 18:47:43.375, 1567561663375
55, -290.17, -500.12, -54.91, -475.37, 0.000, 0.000, 0.000, 18:47:43.386, 1567561663386
56, -309.85, -504.59, -51.05, -471.64, 0.000, 0.000, 0.000, 18:47:43.386, 1567561663386
57, -319.14, -497.60, -79.56, -490.07, 0.000, 0.000, 0.000, 18:47:43.397, 1567561663397
58, -298.22, -491.79, -61.93, -475.61, 0.000, 0.000, 0.000, 18:47:43.397, 1567561663397
59, -297.09, -495.08, -39.77, -463.79, 0.000, 0.000, 0.000, 18:47:43.408, 1567561663408
60, -320.49, -491.81, -60.22, -475.82, 0.000, 0.000, 0.000, 18:47:43.408, 1567561663408
61, -311.98, -491.33, -71.22, -479.99, 0.000, 0.000, 0.000, 18:47:43.420, 1567561663420
62, -302.31, -500.37, -45.03, -465.04, 0.000, 0.000, 0.000, 18:47:43.420, 1567561663420
63, -324.59, -502.45, -64.73, -481.31, 0.000, 0.000, 0.000, 18:47:43.431, 1567561663431
64, -321.92, -496.54, -86.32, -495.56, 0.000, 0.000, 0.000, 18:47:43.431, 1567561663431
65, -305.47, -506.66, -76.05, -491.95, 0.000, 0.000, 0.000, 18:47:43.431, 1567561663431
66, -314.56, -511.81, -75.59, -495.35, 0.000, 0.000, 0.000, 18:47:43.431, 1567561663431
67, -334.10, -509.16, -105.54, -517.97, 0.000, 0.000, 0.000, 18:47:43.442, 1567561663442
68, -303.89, -509.39, -90.41, -506.19, 0.000, 0.000, 0.000, 18:47:43.442, 1567561663442
69, -297.92, -507.41, -61.78, -487.51, 0.000, 0.000, 0.000, 18:47:43.453, 1567561663453
70, -328.21, -506.49, -89.10, -502.76, 0.000, 0.000, 0.000, 18:47:43.453, 1567561663453
71, -313.60, -504.34, -86.53, -502.34, 0.000, 0.000, 0.000, 18:47:43.465, 1567561663465
72, -292.31, -503.58, -49.54, -482.64, 0.000, 0.000, 0.000, 18:47:43.465, 1567561663465
73, -314.61, -503.18, -65.16, -492.27, 0.000, 0.000, 0.000, 18:47:43.476, 1567561663476
74, -314.99, -500.70, -86.27, -498.93, 0.000, 0.000, 0.000, 18:47:43.476, 1567561663476
75, -290.00, -497.65, -56.01, -474.31, 0.000, 0.000, 0.000, 18:47:43.487, 1567561663487
76, -293.73, -495.92, -44.57, -468.60, 0.000, 0.000, 0.000, 18:47:43.487, 1567561663487
77, -311.79, -481.91, -68.22, -485.22, 0.000, 0.000, 0.000, 18:47:43.499, 1567561663499
78, -279.06, -474.69, -50.87, -471.14, 0.000, 0.000, 0.000, 18:47:43.499, 1567561663499
79, -291.98, -485.67, -40.31, -467.71, 0.000, 0.000, 0.000, 18:47:43.510, 1567561663510
80, -317.11, -491.45, -67.82, -489.99, 0.000, 0.000, 0.000, 18:47:43.510, 1567561663510
81, -302.28, -489.71, -73.26, -488.54, 0.000, 0.000, 0.000, 18:47:43.521, 1567561663521
82, -285.45, -493.81, -49.47, -468.74, 0.000, 0.000, 0.000, 18:47:43.521, 1567561663521
83, -309.59, -498.55, -65.19, -478.99, 0.000, 0.000, 0.000, 18:47:43.521, 1567561663521
84, -312.55, -499.16, -98.56, -507.23, 0.000, 0.000, 0.000, 18:47:43.521, 1567561663521
85, -293.80, -504.65, -76.84, -496.04, 0.000, 0.000, 0.000, 18:47:43.532, 1567561663532
86, -298.62, -497.21, -63.19, -485.79, 0.000, 0.000, 0.000, 18:47:43.532, 1567561663532
87, -311.23, -499.27, -90.79, -506.14, 0.000, 0.000, 0.000, 18:47:43.543, 1567561663543
88, -292.56, -494.59, -76.45, -494.87, 0.000, 0.000, 0.000, 18:47:43.543, 1567561663543
89, -288.88, -488.76, -45.25, -472.53, 0.000, 0.000, 0.000, 18:47:43.554, 1567561663554
90, -307.38, -485.12, -62.89, -491.39, 0.000, 0.000, 0.000, 18:47:43.554, 1567561663554
91, -299.61, -488.23, -73.10, -498.98, 0.000, 0.000, 0.000, 18:47:43.566, 1567561663566
92, -290.36, -496.42, -44.35, -477.62, 0.000, 0.000, 0.000, 18:47:43.566, 1567561663566
93, -304.96, -490.90, -48.87, -479.60, 0.000, 0.000, 0.000, 18:47:43.577, 1567561663577
94, -298.96, -483.67, -65.31, -490.23, 0.000, 0.000, 0.000, 18:47:43.577, 1567561663577
95, -278.50, -487.39, -45.90, -474.30, 0.000, 0.000, 0.000, 18:47:43.588, 1567561663588
96, -290.69, -484.31, -34.81, -467.09, 0.000, 0.000, 0.000, 18:47:43.588, 1567561663588
97, -303.52, -478.85, -69.13, -490.86, 0.000, 0.000, 0.000, 18:47:43.600, 1567561663600
98, -286.97, -482.77, -58.46, -477.00, 0.000, 0.000, 0.000, 18:47:43.600, 1567561663600
99, -287.30, -486.44, -35.98, -458.85, 0.000, 0.000, 0.000, 18:47:43.611, 1567561663611
100, -312.13, -491.84, -68.86, -487.49, 0.000, 0.000, 0.000, 18:47:43.611, 1567561663611
101, -304.98, -497.10, -82.54, -489.40, 0.000, 0.000, 0.000, 18:47:43.611, 1567561663611
102, -295.70, -501.40, -63.62, -479.36, 0.000, 0.000, 0.000, 18:47:43.611, 1567561663611
103, -308.49, -499.32, -69.06, -483.53, 0.000, 0.000, 0.000, 18:47:43.622, 1567561663622
104, -310.21, -496.47, -88.91, -499.41, 0.000, 0.000, 0.000, 18:47:43.622, 1567561663622
105, -293.25, -501.06, -70.50, -483.32, 0.000, 0.000, 0.000, 18:47:43.633, 1567561663633
106, -302.42, -503.47, -62.79, -488.13, 0.000, 0.000, 0.000, 18:47:43.633, 1567561663633
107, -324.28, -504.85, -96.87, -511.24, 0.000, 0.000, 0.000, 18:47:43.645, 1567561663645
108, -303.83, -507.76, -83.47, -494.51, 0.000, 0.000, 0.000, 18:47:43.645, 1567561663645
109, -298.35, -507.81, -59.94, -480.91, 0.000, 0.000, 0.000, 18:47:43.656, 1567561663656
110, -319.57, -500.12, -77.96, -499.75, 0.000, 0.000, 0.000, 18:47:43.656, 1567561663656
111, -299.55, -495.65, -80.10, -495.17, 0.000, 0.000, 0.000, 18:47:43.667, 1567561663667
112, -286.70, -493.26, -42.66, -473.67, 0.000, 0.000, 0.000, 18:47:43.667, 1567561663667
113, -307.13, -488.88, -53.94, -486.03, 0.000, 0.000, 0.000, 18:47:43.678, 1567561663678
114, -303.20, -485.89, -75.23, -493.33, 0.000, 0.000, 0.000, 18:47:43.678, 1567561663678
115, -276.93, -487.22, -47.24, -473.68, 0.000, 0.000, 0.000, 18:47:43.689, 1567561663689
116, -293.14, -479.94, -39.15, -472.18, 0.000, 0.000, 0.000, 18:47:43.689, 1567561663689
117, -314.80, -485.97, -70.14, -493.15, 0.000, 0.000, 0.000, 18:47:43.701, 1567561663701
118, -289.85, -489.54, -64.13, -482.74, 0.000, 0.000, 0.000, 18:47:43.701, 1567561663701
119, -290.86, -493.15, -38.03, -466.87, 0.000, 0.000, 0.000, 18:47:43.701, 1567561663701
120, -317.99, -494.40, -76.18, -486.43, 0.000, 0.000, 0.000, 18:47:43.701, 1567561663701
121, -312.28, -499.29, -85.94, -490.06, 0.000, 0.000, 0.000, 18:47:43.712, 1567561663712
122, -296.79, -503.27, -55.91, -468.41, 0.000, 0.000, 0.000, 18:47:43.712, 1567561663712
123, -322.08, -500.16, -66.80, -477.19, 0.000, 0.000, 0.000, 18:47:43.723, 1567561663723
124, -324.63, -506.81, -95.13, -495.86, 0.000, 0.000, 0.000, 18:47:43.723, 1567561663723
125, -303.53, -507.90, -71.28, -473.80, 0.000, 0.000, 0.000, 18:47:43.735, 1567561663735
126, -312.30, -513.81, -68.10, -477.78, 0.000, 0.000, 0.000, 18:47:43.735, 1567561663735
127, -331.00, -510.26, -97.48, -502.35, 0.000, 0.000, 0.000, 18:47:43.746, 1567561663746
128, -312.89, -514.83, -87.58, -493.58, 0.000, 0.000, 0.000, 18:47:43.746, 1567561663746
129, -310.17, -516.02, -61.37, -479.38, 0.000, 0.000, 0.000, 18:47:43.757, 1567561663757
130, -320.78, -505.32, -82.48, -492.50, 0.000, 0.000, 0.000, 18:47:43.757, 1567561663757
131, -308.43, -510.47, -90.69, -499.84, 0.000, 0.000, 0.000, 18:47:43.768, 1567561663768
132, -293.15, -507.26, -60.82, -482.18, 0.000, 0.000, 0.000, 18:47:43.768, 1567561663768
133, -313.73, -498.51, -64.41, -488.80, 0.000, 0.000, 0.000, 18:47:43.780, 1567561663780
134, -301.17, -477.15, -70.67, -496.23, 0.000, 0.000, 0.000, 18:47:43.780, 1567561663780
135, -277.73, -481.41, -40.65, -474.68, 0.000, 0.000, 0.000, 18:47:43.791, 1567561663791
136, -297.94, -482.63, -34.33, -470.19, 0.000, 0.000, 0.000, 18:47:43.791, 1567561663791
137, -310.85, -478.97, -67.69, -489.44, 0.000, 0.000, 0.000, 18:47:43.791, 1567561663791
138, -292.63, -486.24, -59.65, -484.54, 0.000, 0.000, 0.000, 18:47:43.791, 1567561663791
139, -295.90, -498.24, -52.08, -472.67, 0.000, 0.000, 0.000, 18:47:43.802, 1567561663802
140, -317.73, -497.46, -82.78, -497.86, 0.000, 0.000, 0.000, 18:47:43.802, 1567561663802
141, -303.05, -500.32, -89.19, -500.64, 0.000, 0.000, 0.000, 18:47:43.813, 1567561663813
142, -288.30, -501.32, -61.50, -478.59, 0.000, 0.000, 0.000, 18:47:43.813, 1567561663813
143, -307.54, -502.50, -78.31, -489.33, 0.000, 0.000, 0.000, 18:47:43.825, 1567561663825
144, -319.61, -503.57, -90.55, -505.94, 0.000, 0.000, 0.000, 18:47:43.825, 1567561663825
145, -291.63, -502.30, -63.75, -480.87, 0.000, 0.000, 0.000, 18:47:43.836, 1567561663836
146, -313.57, -507.22, -59.17, -479.93, 0.000, 0.000, 0.000, 18:47:43.836, 1567561663836
147, -320.06, -502.26, -83.44, -490.75, 0.000, 0.000, 0.000, 18:47:43.847, 1567561663847
148, -303.19, -507.46, -77.53, -487.80, 0.000, 0.000, 0.000, 18:47:43.847, 1567561663847
149, -313.24, -516.83, -63.51, -477.53, 0.000, 0.000, 0.000, 18:47:43.859, 1567561663859
150, -325.58, -514.96, -87.51, -493.43, 0.000, 0.000, 0.000, 18:47:43.859, 1567561663859
151, -318.64, -516.45, -98.97, -508.87, 0.000, 0.000, 0.000, 18:47:43.870, 1567561663870
152, -296.65, -514.62, -66.67, -484.89, 0.000, 0.000, 0.000, 18:47:43.870, 1567561663870
153, -315.23, -508.78, -79.74, -494.00, 0.000, 0.000, 0.000, 18:47:43.881, 1567561663881
154, -310.91, -502.86, -95.80, -509.26, 0.000, 0.000, 0.000, 18:47:43.881, 1567561663881
155, -289.88, -498.89, -69.56, -489.99, 0.000, 0.000, 0.000, 18:47:43.881, 1567561663881
156, -296.61, -487.81, -53.93, -473.15, 0.000, 0.000, 0.000, 18:47:43.881, 1567561663881
157, -312.33, -484.83, -77.23, -493.24, 0.000, 0.000, 0.000, 18:47:43.892, 1567561663892
158, -289.71, -485.43, -58.97, -482.32, 0.000, 0.000, 0.000, 18:47:43.892, 1567561663892
159, -282.59, -484.36, -33.68, -464.71, 0.000, 0.000, 0.000, 18:47:43.903, 1567561663903
160, -303.49, -479.99, -64.55, -482.96, 0.000, 0.000, 0.000, 18:47:43.903, 1567561663903
161, -294.49, -479.46, -67.41, -486.07, 0.000, 0.000, 0.000, 18:47:43.915, 1567561663915
162, -284.87, -485.15, -40.51, -469.25, 0.000, 0.000, 0.000, 18:47:43.915, 1567561663915
163, -309.28, -486.27, -54.90, -479.08, 0.000, 0.000, 0.000, 18:47:43.926, 1567561663926
164, -310.72, -487.53, -77.93, -488.82, 0.000, 0.000, 0.000, 18:47:43.926, 1567561663926
165, -286.60, -486.66, -40.56, -461.24, 0.000, 0.000, 0.000, 18:47:43.937, 1567561663937
166, -306.29, -494.29, -43.02, -464.87, 0.000, 0.000, 0.000, 18:47:43.937, 1567561663937
167, -324.10, -497.25, -78.88, -486.81, 0.000, 0.000, 0.000, 18:47:43.948, 1567561663948
168, -298.16, -498.08, -70.24, -481.72, 0.000, 0.000, 0.000, 18:47:43.948, 1567561663948
169, -295.27, -501.43, -52.08, -468.28, 0.000, 0.000, 0.000, 18:47:43.960, 1567561663960
170, -319.52, -503.99, -87.06, -491.48, 0.000, 0.000, 0.000, 18:47:43.960, 1567561663960
171, -310.10, -511.25, -96.92, -506.26, 0.000, 0.000, 0.000, 18:47:43.971, 1567561663971
172, -298.74, -513.69, -66.41, -486.71, 0.000, 0.000, 0.000, 18:47:43.971, 1567561663971
173, -321.58, -502.56, -69.69, -489.90, 0.000, 0.000, 0.000, 18:47:43.971, 1567561663971
174, -316.59, -500.18, -93.20, -510.97, 0.000, 0.000, 0.000, 18:47:43.971, 1567561663971
175, -293.53, -496.97, -59.49, -485.34, 0.000, 0.000, 0.000, 18:47:43.982, 1567561663982
176, -307.12, -490.79, -51.69, -481.42, 0.000, 0.000, 0.000, 18:47:43.982, 1567561663982
177, -309.43, -483.51, -71.52, -493.12, 0.000, 0.000, 0.000, 18:47:43.993, 1567561663993
178, -292.22, -482.23, -59.02, -480.22, 0.000, 0.000, 0.000, 18:47:43.993, 1567561663993
179, -291.73, -487.99, -36.95, -463.76, 0.000, 0.000, 0.000, 18:47:44.005, 1567561664005
180, -308.62, -482.33, -58.87, -483.39, 0.000, 0.000, 0.000, 18:47:44.005, 1567561664005
181, -302.14, -486.59, -70.73, -485.98, 0.000, 0.000, 0.000, 18:47:44.016, 1567561664016
182, -286.19, -490.36, -39.66, -465.50, 0.000, 0.000, 0.000, 18:47:44.016, 1567561664016
183, -315.20, -495.39, -61.05, -481.42, 0.000, 0.000, 0.000, 18:47:44.027, 1567561664027
184, -318.54, -496.13, -87.25, -500.25, 0.000, 0.000, 0.000, 18:47:44.027, 1567561664027
185, -296.05, -500.69, -63.15, -477.95, 0.000, 0.000, 0.000, 18:47:44.038, 1567561664038
186, -312.31, -504.38, -57.98, -476.69, 0.000, 0.000, 0.000, 18:47:44.038, 1567561664038
187, -331.19, -503.21, -90.38, -498.94, 0.000, 0.000, 0.000, 18:47:44.050, 1567561664050
188, -306.70, -507.83, -84.34, -497.98, 0.000, 0.000, 0.000, 18:47:44.050, 1567561664050
189, -304.37, -507.71, -58.86, -477.28, 0.000, 0.000, 0.000, 18:47:44.061, 1567561664061
190, -324.97, -508.72, -94.54, -505.21, 0.000, 0.000, 0.000, 18:47:44.061, 1567561664061
191, -313.73, -514.42, -104.67, -513.48, 0.000, 0.000, 0.000, 18:47:44.061, 1567561664061
192, -284.14, -507.34, -66.19, -476.50, 0.000, 0.000, 0.000, 18:47:44.061, 1567561664061
193, -310.53, -500.91, -68.90, -485.53, 0.000, 0.000, 0.000, 18:47:44.072, 1567561664072
194, -314.63, -497.53, -86.28, -496.92, 0.000, 0.000, 0.000, 18:47:44.072, 1567561664072
195, -294.19, -504.59, -61.34, -485.56, 0.000, 0.000, 0.000, 18:47:44.084, 1567561664084
196, -301.51, -491.38, -50.78, -479.26, 0.000, 0.000, 0.000, 18:47:44.084, 1567561664084
197, -314.02, -480.59, -71.50, -488.54, 0.000, 0.000, 0.000, 18:47:44.095, 1567561664095
198, -292.89, -482.93, -58.09, -470.82, 0.000, 0.000, 0.000, 18:47:44.095, 1567561664095
199, -291.58, -488.54, -42.74, -472.68, 0.000, 0.000, 0.000, 18:47:44.106, 1567561664106
200, -318.65, -484.44, -64.70, -487.78, 0.000, 0.000, 0.000, 18:47:44.106, 1567561664106
0, -296.82, -479.69, -68.92, -483.46, 0.000, 0.000, 0.000, 18:47:44.106, 1567561664106
1, -286.15, -486.34, -46.62, -472.96, 0.000, 0.000, 0.000, 18:47:44.117, 1567561664117
2, -311.31, -486.03, -62.33, -484.23, 0.000, 0.000, 0.000, 18:47:44.117, 1567561664117
3, -307.58, -486.33, -80.32, -501.94, 0.000, 0.000, 0.000, 18:47:44.128, 1567561664128
4, -292.29, -492.50, -54.15, -473.69, 0.000, 0.000, 0.000, 18:47:44.128, 1567561664128
5, -302.66, -493.79, -47.61, -475.00, 0.000, 0.000, 0.000, 18:47:44.140, 1567561664140
6, -319.61, -495.59, -85.92, -496.94, 0.000, 0.000, 0.000, 18:47:44.140, 1567561664140
7, -301.79, -500.25, -75.09, -485.36, 0.000, 0.000, 0.000, 18:47:44.151, 1567561664151
8, -303.86, -509.22, -60.61, -471.81, 0.000, 0.000, 0.000, 18:47:44.151, 1567561664151
9, -333.72, -510.95, -92.12, -499.92, 0.000, 0.000, 0.000, 18:47:44.162, 1567561664162
10, -318.49, -512.90, -91.72, -501.08, 0.000, 0.000, 0.000, 18:47:44.162, 1567561664162
11, -300.63, -517.09, -70.39, -484.56, 0.000, 0.000, 0.000, 18:47:44.173, 1567561664173
12, -318.07, -511.15, -76.59, -487.50, 0.000, 0.000, 0.000, 18:47:44.173, 1567561664173
13, -322.67, -510.39, -98.82, -507.18, 0.000, 0.000, 0.000, 18:47:44.185, 1567561664185
14, -301.00, -505.91, -67.18, -482.67, 0.000, 0.000, 0.000, 18:47:44.185, 1567561664185
15, -311.16, -506.48, -57.96, -478.34, 0.000, 0.000, 0.000, 18:47:44.196, 1567561664196
16, -325.79, -502.92, -93.11, -494.46, 0.000, 0.000, 0.000, 18:47:44.196, 1567561664196
17, -296.40, -497.11, -69.76, -482.30, 0.000, 0.000, 0.000, 18:47:44.196, 1567561664196
18, -297.31, -495.87, -44.18, -467.51, 0.000, 0.000, 0.000, 18:47:44.196, 1567561664196
19, -321.35, -491.13, -75.98, -489.50, 0.000, 0.000, 0.000, 18:47:44.207, 1567561664207
20, -296.68, -479.95, -63.08, -478.32, 0.000, 0.000, 0.000, 18:47:44.207, 1567561664207
21, -287.41, -483.86, -35.24, -466.49, 0.000, 0.000, 0.000, 18:47:44.218, 1567561664218
22, -304.60, -482.33, -52.31, -480.24, 0.000, 0.000, 0.000, 18:47:44.218, 1567561664218
23, -301.53, -480.72, -75.67, -492.90, 0.000, 0.000, 0.000, 18:47:44.230, 1567561664230
24, -278.72, -484.94, -46.25, -473.62, 0.000, 0.000, 0.000, 18:47:44.230, 1567561664230
25, -297.07, -486.07, -48.41, -477.32, 0.000, 0.000, 0.000, 18:47:44.241, 1567561664241
26, -310.44, -481.52, -78.95, -495.18, 0.000, 0.000, 0.000, 18:47:44.241, 1567561664241
27, -290.15, -497.58, -73.95, -491.83, 0.000, 0.000, 0.000, 18:47:44.252, 1567561664252
28, -295.60, -500.21, -52.09, -475.46, 0.000, 0.000, 0.000, 18:47:44.252, 1567561664252
29, -322.12, -500.03, -78.63, -491.68, 0.000, 0.000, 0.000, 18:47:44.263, 1567561664263
30, -308.05, -500.54, -87.23, -491.32, 0.000, 0.000, 0.000, 18:47:44.263, 1567561664263
31, -298.23, -511.70, -65.18, -480.00, 0.000, 0.000, 0.000, 18:47:44.275, 1567561664275
32, -321.30, -500.45, -75.27, -487.63, 0.000, 0.000, 0.000, 18:47:44.275, 1567561664275
33, -320.01, -504.60, -94.61, -504.80, 0.000, 0.000, 0.000, 18:47:44.286, 1567561664286
34, -294.49, -504.94, -67.74, -482.65, 0.000, 0.000, 0.000, 18:47:44.286, 1567561664286
35, -310.15, -515.71, -57.92, -477.12, 0.000, 0.000, 0.000, 18:47:44.286, 1567561664286
36, -321.44, -516.82, -92.59, -502.33, 0.000, 0.000, 0.000, 18:47:44.286, 1567561664286
37, -298.88, -519.41, -73.56, -490.31, 0.000, 0.000, 0.000, 18:47:44.297, 1567561664297
38, -301.02, -522.36, -55.65, -480.98, 0.000, 0.000, 0.000, 18:47:44.297, 1567561664297
39, -319.99, -515.49, -80.62, -494.23, 0.000, 0.000, 0.000, 18:47:44.308, 1567561664308
40, -307.63, -514.62, -84.04, -497.46, 0.000, 0.000, 0.000, 18:47:44.308, 1567561664308
41, -285.33, -510.41, -53.57, -476.07, 0.000, 0.000, 0.000, 18:47:44.320, 1567561664320
42, -307.37, -503.61, -59.22, -485.24, 0.000, 0.000, 0.000, 18:47:44.320, 1567561664320
43, -304.05, -499.37, -79.80, -496.47, 0.000, 0.000, 0.000, 18:47:44.331, 1567561664331
44, -279.22, -500.07, -45.59, -468.07, 0.000, 0.000, 0.000, 18:47:44.331, 1567561664331
45, -292.31, -496.64, -38.39, -466.88, 0.000, 0.000, 0.000, 18:47:44.342, 1567561664342
46, -305.58, -499.09, -76.14, -500.91, 0.000, 0.000, 0.000, 18:47:44.342, 1567561664342
47, -287.39, -503.62, -69.28, -495.45, 0.000, 0.000, 0.000, 18:47:44.353, 1567561664353
48, -291.78, -509.78, -57.61, -483.76, 0.000, 0.000, 0.000, 18:47:44.353, 1567561664353
49, -319.91, -512.05, -82.68, -499.63, 0.000, 0.000, 0.000, 18:47:44.365, 1567561664365
50, -301.98, -504.58, -76.14, -494.03, 0.000, 0.000, 0.000, 18:47:44.365, 1567561664365
51, -289.84, -505.59, -47.64, -474.09, 0.000, 0.000, 0.000, 18:47:44.376, 1567561664376
52, -309.18, -496.99, -58.83, -481.01, 0.000, 0.000, 0.000, 18:47:44.376, 1567561664376
53, -307.04, -493.54, -77.29, -489.68, 0.000, 0.000, 0.000, 18:47:44.376, 1567561664376
54, -290.98, -504.07, -58.39, -480.92, 0.000, 0.000, 0.000, 18:47:44.376, 1567561664376
55, -304.54, -502.16, -56.60, -481.63, 0.000, 0.000, 0.000, 18:47:44.387, 1567561664387
56, -321.50, -504.76, -89.43, -504.84, 0.000, 0.000, 0.000, 18:47:44.387, 1567561664387
57, -295.02, -505.14, -70.42, -490.16, 0.000, 0.000, 0.000, 18:47:44.398, 1567561664398
58, -304.47, -510.93, -56.72, -479.31, 0.000, 0.000, 0.000, 18:47:44.398, 1567561664398
59, -317.65, -501.11, -78.24, -499.73, 0.000, 0.000, 0.000, 18:47:44.410, 1567561664410
60, -298.28, -498.78, -75.44, -495.35, 0.000, 0.000, 0.000, 18:47:44.410, 1567561664410
61, -291.44, -503.61, -56.92, -483.22, 0.000, 0.000, 0.000, 18:47:44.421, 1567561664421
62, -305.73, -495.16, -64.95, -488.57, 0.000, 0.000, 0.000, 18:47:44.421, 1567561664421
63, -301.26, -492.27, -82.91, -497.29, 0.000, 0.000, 0.000, 18:47:44.432, 1567561664432
64, -284.41, -496.86, -57.33, -485.19, 0.000, 0.000, 0.000, 18:47:44.432, 1567561664432
65, -292.09, -493.96, -52.05, -481.68, 0.000, 0.000, 0.000, 18:47:44.443, 1567561664443
66, -306.71, -490.57, -76.37, -495.10, 0.000, 0.000, 0.000, 18:47:44.443, 1567561664443
67, -285.67, -491.23, -61.80, -479.93, 0.000, 0.000, 0.000, 18:47:44.455, 1567561664455
68, -286.97, -498.16, -41.77, -464.16, 0.000, 0.000, 0.000, 18:47:44.455, 1567561664455
69, -308.24, -493.12, -63.19, -483.37, 0.000, 0.000, 0.000, 18:47:44.466, 1567561664466
70, -295.66, -495.46, -74.56, -487.67, 0.000, 0.000, 0.000, 18:47:44.466, 1567561664466
71, -279.47, -492.48, -44.68, -465.16, 0.000, 0.000, 0.000, 18:47:44.466, 1567561664466
72, -301.63, -485.02, -53.51, -474.80, 0.000, 0.000, 0.000, 18:47:44.466, 1567561664466
73, -308.68, -491.14, -84.93, -494.91, 0.000, 0.000, 0.000, 18:47:44.477, 1567561664477
74, -288.91, -501.68, -58.68, -482.64, 0.000, 0.000, 0.000, 18:47:44.477, 1567561664477
75, -310.57, -503.93, -57.76, -476.99, 0.000, 0.000, 0.000, 18:47:44.488, 1567561664488
76, -325.96, -502.98, -85.33, -501.80, 0.000, 0.000, 0.000, 18:47:44.488, 1567561664488
77, -301.88, -501.79, -72.89, -488.50, 0.000, 0.000, 0.000, 18:47:44.500, 1567561664500
78, -297.22, -505.22, -51.89, -479.12, 0.000, 0.000, 0.000, 18:47:44.500, 1567561664500
79, -323.52, -506.82, -83.92, -507.21, 0.000, 0.000, 0.000, 18:47:44.511, 1567561664511
80, -314.26, -510.70, -89.51, -508.26, 0.000, 0.000, 0.000, 18:47:44.511, 1567561664511
81, -286.93, -503.24, -55.36, -471.95, 0.000, 0.000, 0.000, 18:47:44.522, 1567561664522
82, -316.00, -504.79, -75.62, -491.11, 0.000, 0.000, 0.000, 18:47:44.522, 1567561664522
83, -315.63, -505.65, -98.45, -506.09, 0.000, 0.000, 0.000, 18:47:44.533, 1567561664533
84, -287.75, -507.88, -71.16, -483.68, 0.000, 0.000, 0.000, 18:47:44.533, 1567561664533
85, -297.29, -503.33, -60.61, -478.91, 0.000, 0.000, 0.000, 18:47:44.545, 1567561664545
86, -311.15, -500.22, -94.30, -508.56, 0.000, 0.000, 0.000, 18:47:44.545, 1567561664545
87, -291.37, -503.82, -72.79, -489.74, 0.000, 0.000, 0.000, 18:47:44.556, 1567561664556
88, -288.18, -490.00, -37.76, -462.56, 0.000, 0.000, 0.000, 18:47:44.556, 1567561664556
89, -308.59, -487.40, -64.98, -486.99, 0.000, 0.000, 0.000, 18:47:44.557, 1567561664557
90, -296.24, -482.94, -63.98, -481.47, 0.000, 0.000, 0.000, 18:47:44.557, 1567561664557
91, -286.64, -481.20, -30.00, -458.95, 0.000, 0.000, 0.000, 18:47:44.567, 1567561664567
92, -313.22, -484.51, -45.13, -468.30, 0.000, 0.000, 0.000, 18:47:44.567, 1567561664567
93, -318.35, -486.78, -69.92, -477.07, 0.000, 0.000, 0.000, 18:47:44.579, 1567561664579
94, -297.11, -495.77, -44.59, -461.14, 0.000, 0.000, 0.000, 18:47:44.579, 1567561664579
95, -318.24, -498.10, -48.72, -463.18, 0.000, 0.000, 0.000, 18:47:44.590, 1567561664590
96, -324.20, -494.33, -79.39, -483.29, 0.000, 0.000, 0.000, 18:47:44.590, 1567561664590
97, -303.05, -502.44, -70.75, -482.33, 0.000, 0.000, 0.000, 18:47:44.601, 1567561664601
98, -305.16, -508.01, -61.35, -478.28, 0.000, 0.000, 0.000, 18:47:44.601, 1567561664601
99, -325.80, -505.64, -92.74, -501.72, 0.000, 0.000, 0.000, 18:47:44.612, 1567561664612
100, -313.14, -506.95, -93.21, -504.52, 0.000, 0.000, 0.000, 18:47:44.612, 1567561664612
101, -295.38, -509.84, -64.00, -485.22, 0.000, 0.000, 0.000, 18:47:44.623, 1567561664623
102, -320.60, -510.83, -82.35, -501.44, 0.000, 0.000, 0.000, 18:47:44.623, 1567561664623
103, -313.13, -511.41, -106.74, -524.66, 0.000, 0.000, 0.000, 18:47:44.635, 1567561664635
104, -292.23, -513.67, -74.98, -497.57, 0.000, 0.000, 0.000, 18:47:44.635, 1567561664635
105, -304.49, -507.98, -69.74, -495.38, 0.000, 0.000, 0.000, 18:47:44.646, 1567561664646
106, -311.62, -498.53, -98.59, -515.88, 0.000, 0.000, 0.000, 18:47:44.646, 1567561664646
107, -287.63, -501.05, -82.12, -502.68, 0.000, 0.000, 0.000, 18:47:44.646, 1567561664646
108, -289.87, -500.91, -55.77, -486.85, 0.000, 0.000, 0.000, 18:47:44.646, 1567561664646
109, -311.12, -496.07, -84.06, -502.18, 0.000, 0.000, 0.000, 18:47:44.657, 1567561664657
110, -295.87, -493.81, -78.13, -496.87, 0.000, 0.000, 0.000, 18:47:44.657, 1567561664657
111, -283.98, -491.43, -40.13, -469.34, 0.000, 0.000, 0.000, 18:47:44.668, 1567561664668
112, -308.25, -488.02, -53.42, -475.87, 0.000, 0.000, 0.000, 18:47:44.668, 1567561664668
113, -302.05, -481.31, -62.36, -477.74, 0.000, 0.000, 0.000, 18:47:44.680, 1567561664680
114, -285.52, -485.81, -37.51, -459.24, 0.000, 0.000, 0.000, 18:47:44.680, 1567561664680
115, -305.03, -488.62, -41.80, -461.56, 0.000, 0.000, 0.000, 18:47:44.691, 1567561664691
116, -311.97, -481.19, -68.20, -486.11, 0.000, 0.000, 0.000, 18:47:44.691, 1567561664691
117, -287.39, -481.82, -54.35, -477.93, 0.000, 0.000, 0.000, 18:47:44.702, 1567561664702
118, -299.70, -492.24, -38.09, -465.95, 0.000, 0.000, 0.000, 18:47:44.702, 1567561664702
119, -326.65, -495.00, -75.91, -495.10, 0.000, 0.000, 0.000, 18:47:44.714, 1567561664714
120, -312.10, -498.44, -80.33, -499.20, 0.000, 0.000, 0.000, 18:47:44.714, 1567561664714
121, -303.41, -506.76, -61.69, -487.40, 0.000, 0.000, 0.000, 18:47:44.725, 1567561664725
122, -326.60, -504.51, -79.77, -491.09, 0.000, 0.000, 0.000, 18:47:44.725, 1567561664725
123, -321.52, -514.06, -103.37, -512.14, 0.000, 0.000, 0.000, 18:47:44.736, 1567561664736
124, -305.30, -516.18, -78.19, -493.23, 0.000, 0.000, 0.000, 18:47:44.736, 1567561664736
125, -316.40, -510.29, -69.33, -485.40, 0.000, 0.000, 0.000, 18:47:44.736, 1567561664736
126, -324.06, -507.61, -97.83, -508.03, 0.000, 0.000, 0.000, 18:47:44.736, 1567561664736
127, -303.48, -510.02, -78.92, -497.91, 0.000, 0.000, 0.000, 18:47:44.747, 1567561664747
128, -295.59, -493.20, -44.70, -475.80, 0.000, 0.000, 0.000, 18:47:44.747, 1567561664747
129, -310.96, -491.61, -73.89, -497.86, 0.000, 0.000, 0.000, 18:47:44.758, 1567561664758
130, -283.82, -480.18, -65.32, -479.94, 0.000, 0.000, 0.000, 18:47:44.758, 1567561664758
131, -272.81, -480.26, -32.98, -463.86, 0.000, 0.000, 0.000, 18:47:44.770, 1567561664770
132, -302.09, -485.97, -53.89, -484.50, 0.000, 0.000, 0.000, 18:47:44.770, 1567561664770
133, -296.44, -485.51, -70.28, -492.79, 0.000, 0.000, 0.000, 18:47:44.781, 1567561664781
134, -277.58, -488.92, -49.13, -472.69, 0.000, 0.000, 0.000, 18:47:44.781, 1567561664781
135, -299.55, -489.66, -41.61, -468.69, 0.000, 0.000, 0.000, 18:47:44.792, 1567561664792
136, -307.34, -486.86, -76.88, -489.03, 0.000, 0.000, 0.000, 18:47:44.792, 1567561664792
137, -282.83, -492.59, -65.83, -481.14, 0.000, 0.000, 0.000, 18:47:44.803, 1567561664803
138, -291.72, -495.45, -46.93, -468.69, 0.000, 0.000, 0.000, 18:47:44.803, 1567561664803
139, -315.14, -495.53, -77.95, -493.10, 0.000, 0.000, 0.000, 18:47:44.815, 1567561664815
140, -310.75, -507.50, -92.13, -501.74, 0.000, 0.000, 0.000, 18:47:44.815, 1567561664815
141, -298.97, -509.40, -62.28, -478.71, 0.000, 0.000, 0.000, 18:47:44.826, 1567561664826
142, -322.20, -508.00, -82.80, -488.75, 0.000, 0.000, 0.000, 18:47:44.826, 1567561664826
143, -323.40, -512.38, -107.20, -513.22, 0.000, 0.000, 0.000, 18:47:44.826, 1567561664826
144, -303.48, -511.11, -71.03, -482.93, 0.000, 0.000, 0.000, 18:47:44.826, 1567561664826
145, -315.87, -504.42, -62.52, -478.06, 0.000, 0.000, 0.000, 18:47:44.837, 1567561664837
146, -319.82, -501.80, -84.18, -496.22, 0.000, 0.000, 0.000, 18:47:44.837, 1567561664837
147, -297.18, -495.31, -68.76, -483.05, 0.000, 0.000, 0.000, 18:47:44.848, 1567561664848
148, -300.77, -501.40, -48.39, -476.28, 0.000, 0.000, 0.000, 18:47:44.848, 1567561664848
149, -317.64, -493.92, -80.13, -492.63, 0.000, 0.000, 0.000, 18:47:44.860, 1567561664860
150, -298.05, -494.81, -75.82, -489.37, 0.000, 0.000, 0.000, 18:47:44.860, 1567561664860
151, -295.71, -499.81, -50.82, -475.45, 0.000, 0.000, 0.000, 18:47:44.871, 1567561664871
152, -313.34, -497.88, -66.89, -484.22, 0.000, 0.000, 0.000, 18:47:44.871, 1567561664871
153, -306.48, -491.89, -78.01, -491.15, 0.000, 0.000, 0.000, 18:47:44.882, 1567561664882
154, -279.39, -490.52, -49.29, -468.52, 0.000, 0.000, 0.000, 18:47:44.882, 1567561664882
155, -294.18, -484.20, -40.07, -463.37, 0.000, 0.000, 0.000, 18:47:44.894, 1567561664894
156, -314.81, -492.87, -83.62, -497.32, 0.000, 0.000, 0.000, 18:47:44.894, 1567561664894
157, -286.77, -487.04, -61.57, -479.05, 0.000, 0.000, 0.000, 18:47:44.905, 1567561664905
158, -285.27, -481.33, -31.31, -455.94, 0.000, 0.000, 0.000, 18:47:44.905, 1567561664905
159, -304.03, -481.28, -56.76, -477.41, 0.000, 0.000, 0.000, 18:47:44.916, 1567561664916
160, -294.05, -486.82, -60.98, -475.90, 0.000, 0.000, 0.000, 18:47:44.916, 1567561664916
161, -292.94, -497.32, -40.98, -463.09, 0.000, 0.000, 0.000, 18:47:44.916, 1567561664916
162, -320.80, -493.97, -62.22, -482.99, 0.000, 0.000, 0.000, 18:47:44.916, 1567561664916
163, -318.30, -494.61, -78.56, -493.47, 0.000, 0.000, 0.000, 18:47:44.927, 1567561664927
164, -298.28, -501.36, -58.63, -479.09, 0.000, 0.000, 0.000, 18:47:44.927, 1567561664927
165, -312.39, -504.54, -64.12, -483.44, 0.000, 0.000, 0.000, 18:47:44.938, 1567561664938
166, -330.76, -508.69, -96.35, -502.96, 0.000, 0.000, 0.000, 18:47:44.938, 1567561664938
167, -307.54, -505.31, -75.10, -482.80, 0.000, 0.000, 0.000, 18:47:44.950, 1567561664950
168, -307.43, -509.98, -55.19, -476.15, 0.000, 0.000, 0.000, 18:47:44.950, 1567561664950
169, -322.56, -502.43, -80.55, -496.58, 0.000, 0.000, 0.000, 18:47:44.961, 1567561664961
170, -301.30, -499.44, -87.43, -505.09, 0.000, 0.000, 0.000, 18:47:44.961, 1567561664961
171, -288.47, -495.30, -47.62, -475.03, 0.000, 0.000, 0.000, 18:47:44.972, 1567561664972
172, -310.82, -499.16, -73.39, -501.28, 0.000, 0.000, 0.000, 18:47:44.972, 1567561664972
173, -302.25, -489.82, -84.24, -504.57, 0.000, 0.000, 0.000, 18:47:44.984, 1567561664984
174, -280.17, -493.84, -57.87, -485.60, 0.000, 0.000, 0.000, 18:47:44.984, 1567561664984
175, -296.05, -492.84, -56.85, -484.25, 0.000, 0.000, 0.000, 18:47:44.995, 1567561664995
176, -310.04, -494.13, -86.98, -498.11, 0.000, 0.000, 0.000, 18:47:44.995, 1567561664995
177, -287.65, -498.31, -65.11, -486.26, 0.000, 0.000, 0.000, 18:47:45.006, 1567561665006
178, -293.48, -498.70, -53.49, -480.26, 0.000, 0.000, 0.000, 18:47:45.006, 1567561665006
179, -314.48, -493.75, -78.12, -494.68, 0.000, 0.000, 0.000, 18:47:45.007, 1567561665007
180, -293.51, -485.79, -63.70, -481.08, 0.000, 0.000, 0.000, 18:47:45.007, 1567561665007
181, -287.60, -494.84, -37.27, -461.23, 0.000, 0.000, 0.000, 18:47:45.017, 1567561665017
182, -314.56, -495.59, -55.96, -476.36, 0.000, 0.000, 0.000, 18:47:45.017, 1567561665017
183, -313.60, -493.25, -72.20, -486.65, 0.000, 0.000, 0.000, 18:47:45.028, 1567561665028
184, -292.10, -494.78, -44.85, -463.82, 0.000, 0.000, 0.000, 18:47:45.028, 1567561665028
185, -312.98, -494.68, -52.06, -469.42, 0.000, 0.000, 0.000, 18:47:45.040, 1567561665040
186, -330.69, -501.83, -87.16, -494.18, 0.000, 0.000, 0.000, 18:47:45.040, 1567561665040
187, -305.86, -499.96, -69.99, -475.14, 0.000, 0.000, 0.000, 18:47:45.051, 1567561665051
188, -315.64, -506.43, -59.75, -474.06, 0.000, 0.000, 0.000, 18:47:45.051, 1567561665051
189, -329.93, -509.62, -96.02, -503.19, 0.000, 0.000, 0.000, 18:47:45.062, 1567561665062
190, -314.76, -510.87, -99.50, -510.46, 0.000, 0.000, 0.000, 18:47:45.062, 1567561665062
191, -301.81, -508.74, -65.04, -487.81, 0.000, 0.000, 0.000, 18:47:45.073, 1567561665073
192, -317.69, -503.77, -77.41, -500.19, 0.000, 0.000, 0.000, 18:47:45.073, 1567561665073
193, -317.06, -502.84, -99.66, -512.60, 0.000, 0.000, 0.000, 18:47:45.085, 1567561665085
194, -294.03, -506.24, -67.02, -494.06, 0.000, 0.000, 0.000, 18:47:45.085, 1567561665085
195, -303.19, -500.70, -61.19, -492.01, 0.000, 0.000, 0.000, 18:47:45.096, 1567561665096
196, -311.38, -498.80, -89.16, -507.55, 0.000, 0.000, 0.000, 18:47:45.096, 1567561665096
197, -287.27, -494.97, -66.03, -490.59, 0.000, 0.000, 0.000, 18:47:45.097, 1567561665097
198, -287.94, -492.51, -39.72, -470.31, 0.000, 0.000, 0.000, 18:47:45.097, 1567561665097
199, -311.33, -492.29, -77.82, -496.19, 0.000, 0.000, 0.000, 18:47:45.107, 1567561665107
200, -292.66, -488.56, -70.93, -489.41, 0.000, 0.000, 0.000, 18:47:45.107, 1567561665107
0, -281.49, -483.96, -30.21, -457.03, 0.000, 0.000, 0.000, 18:47:45.118, 1567561665118
1, -304.02, -482.06, -51.17, -472.49, 0.000, 0.000, 0.000, 18:47:45.130, 1567561665130
2, -301.99, -472.01, -61.87, -479.59, 0.000, 0.000, 0.000, 18:47:45.130, 1567561665130
3, -276.29, -479.27, -31.54, -452.79, 0.000, 0.000, 0.000, 18:47:45.141, 1567561665141
4, -299.56, -481.55, -32.67, -457.26, 0.000, 0.000, 0.000, 18:47:45.141, 1567561665141
5, -305.30, -478.43, -64.26, -477.13, 0.000, 0.000, 0.000, 18:47:45.142, 1567561665142
6, -287.50, -487.18, -57.16, -474.33, 0.000, 0.000, 0.000, 18:47:45.142, 1567561665142
7, -290.34, -490.28, -37.45, -460.30, 0.000, 0.000, 0.000, 18:47:45.152, 1567561665152
8, -308.77, -491.62, -73.40, -495.03, 0.000, 0.000, 0.000, 18:47:45.152, 1567561665152
9, -302.82, -497.57, -82.44, -493.66, 0.000, 0.000, 0.000, 18:47:45.163, 1567561665163
10, -294.21, -502.64, -53.73, -478.19, 0.000, 0.000, 0.000, 18:47:45.163, 1567561665163
11, -319.91, -508.48, -76.93, -497.57, 0.000, 0.000, 0.000, 18:47:45.175, 1567561665175
12, -313.50, -501.95, -93.77, -504.34, 0.000, 0.000, 0.000, 18:47:45.175, 1567561665175
13, -288.57, -500.26, -59.30, -475.85, 0.000, 0.000, 0.000, 18:47:45.186, 1567561665186
14, -300.15, -497.87, -59.73, -481.06, 0.000, 0.000, 0.000, 18:47:45.186, 1567561665186
15, -313.28, -500.68, -95.09, -508.34, 0.000, 0.000, 0.000, 18:47:45.197, 1567561665197
16, -293.91, -503.97, -75.98, -494.00, 0.000, 0.000, 0.000, 18:47:45.197, 1567561665197
17, -288.47, -496.14, -47.11, -473.57, 0.000, 0.000, 0.000, 18:47:45.208, 1567561665208
18, -312.34, -491.56, -76.66, -498.26, 0.000, 0.000, 0.000, 18:47:45.208, 1567561665208
19, -292.98, -487.86, -75.58, -494.25, 0.000, 0.000, 0.000, 18:47:45.220, 1567561665220
20, -276.46, -484.17, -37.09, -472.16, 0.000, 0.000, 0.000, 18:47:45.220, 1567561665220
21, -304.69, -482.63, -55.23, -487.99, 0.000, 0.000, 0.000, 18:47:45.231, 1567561665231
22, -300.29, -482.84, -74.45, -496.53, 0.000, 0.000, 0.000, 18:47:45.231, 1567561665231
23, -282.63, -489.10, -48.62, -480.15, 0.000, 0.000, 0.000, 18:47:45.231, 1567561665231
24, -308.38, -490.76, -50.77, -476.76, 0.000, 0.000, 0.000, 18:47:45.231, 1567561665231
25, -322.85, -491.42, -76.47, -489.19, 0.000, 0.000, 0.000, 18:47:45.242, 1567561665242
26, -295.07, -493.27, -58.70, -474.60, 0.000, 0.000, 0.000, 18:47:45.242, 1567561665242
27, -301.28, -494.43, -39.73, -461.47, 0.000, 0.000, 0.000, 18:47:45.253, 1567561665253
28, -320.62, -495.73, -75.84, -485.62, 0.000, 0.000, 0.000, 18:47:45.253, 1567561665253
29, -305.31, -493.88, -70.68, -480.59, 0.000, 0.000, 0.000, 18:47:45.265, 1567561665265
30, -300.57, -498.59, -49.35, -465.92, 0.000, 0.000, 0.000, 18:47:45.265, 1567561665265
31, -327.81, -504.57, -72.44, -485.10, 0.000, 0.000, 0.000, 18:47:45.276, 1567561665276
32, -328.01, -508.71, -100.77, -504.87, 0.000, 0.000, 0.000, 18:47:45.276, 1567561665276
33, -305.62, -519.55, -75.87, -484.97, 0.000, 0.000, 0.000, 18:47:45.287, 1567561665287
34, -320.91, -517.10, -73.19, -486.74, 0.000, 0.000, 0.000, 18:47:45.287, 1567561665287
35, -331.51, -516.77, -110.87, -514.97, 0.000, 0.000, 0.000, 18:47:45.298, 1567561665298
36, -304.49, -512.93, -79.87, -489.69, 0.000, 0.000, 0.000, 18:47:45.298, 1567561665298
37, -311.15, -510.88, -60.77, -483.66, 0.000, 0.000, 0.000, 18:47:45.310, 1567561665310
38, -322.08, -497.08, -79.76, -500.56, 0.000, 0.000, 0.000, 18:47:45.310, 1567561665310
39, -303.85, -496.89, -74.15, -491.66, 0.000, 0.000, 0.000, 18:47:45.321, 1567561665321
40, -293.59, -494.10, -42.85, -469.44, 0.000, 0.000, 0.000, 18:47:45.321, 1567561665321
41, -313.58, -486.39, -55.29, -479.84, 0.000, 0.000, 0.000, 18:47:45.321, 1567561665321
42, -301.62, -478.42, -72.34, -487.52, 0.000, 0.000, 0.000, 18:47:45.321, 1567561665321
43, -279.00, -482.81, -44.69, -469.63, 0.000, 0.000, 0.000, 18:47:45.332, 1567561665332
44, -287.66, -479.33, -44.37, -476.42, 0.000, 0.000, 0.000, 18:47:45.332, 1567561665332
45, -298.79, -486.94, -75.07, -493.31, 0.000, 0.000, 0.000, 18:47:45.344, 1567561665344
46, -280.37, -489.26, -62.07, -481.05, 0.000, 0.000, 0.000, 18:47:45.344, 1567561665344
47, -287.62, -494.85, -50.60, -470.16, 0.000, 0.000, 0.000, 18:47:45.355, 1567561665355
48, -316.73, -496.26, -80.07, -492.83, 0.000, 0.000, 0.000, 18:47:45.355, 1567561665355
49, -298.40, -499.97, -82.93, -496.49, 0.000, 0.000, 0.000, 18:47:45.366, 1567561665366
50, -292.51, -504.36, -59.98, -479.80, 0.000, 0.000, 0.000, 18:47:45.366, 1567561665366
51, -314.84, -503.14, -77.83, -493.31, 0.000, 0.000, 0.000, 18:47:45.377, 1567561665377
52, -304.40, -507.80, -98.76, -504.98, 0.000, 0.000, 0.000, 18:47:45.377, 1567561665377
53, -291.68, -514.55, -78.07, -488.83, 0.000, 0.000, 0.000, 18:47:45.388, 1567561665388
54, -307.53, -511.95, -77.93, -488.75, 0.000, 0.000, 0.000, 18:47:45.388, 1567561665388
55, -322.75, -511.57, -104.51, -508.51, 0.000, 0.000, 0.000, 18:47:45.400, 1567561665400
56, -298.69, -507.51, -81.37, -496.21, 0.000, 0.000, 0.000, 18:47:45.400, 1567561665400
57, -310.36, -506.14, -59.93, -479.48, 0.000, 0.000, 0.000, 18:47:45.411, 1567561665411
58, -326.59, -502.23, -83.26, -493.68, 0.000, 0.000, 0.000, 18:47:45.411, 1567561665411
59, -308.90, -499.03, -81.17, -494.90, 0.000, 0.000, 0.000, 18:47:45.411, 1567561665411
60, -295.88, -498.46, -49.14, -474.93, 0.000, 0.000, 0.000, 18:47:45.411, 1567561665411
61, -309.64, -491.30, -64.26, -485.17, 0.000, 0.000, 0.000, 18:47:45.422, 1567561665422
62, -305.53, -490.01, -79.47, -496.70, 0.000, 0.000, 0.000, 18:47:45.422, 1567561665422
63, -282.44, -492.28, -45.19, -475.48, 0.000, 0.000, 0.000, 18:47:45.433, 1567561665433
64, -301.83, -490.59, -52.92, -481.07, 0.000, 0.000, 0.000, 18:47:45.433, 1567561665433
65, -306.31, -490.72, -84.17, -502.55, 0.000, 0.000, 0.000, 18:47:45.444, 1567561665444
66, -280.44, -487.25, -63.78, -483.72, 0.000, 0.000, 0.000, 18:47:45.444, 1567561665444
67, -287.40, -489.72, -51.10, -476.26, 0.000, 0.000, 0.000, 18:47:45.456, 1567561665456
68, -305.99, -483.94, -75.26, -498.25, 0.000, 0.000, 0.000, 18:47:45.456, 1567561665456
69, -298.38, -496.31, -80.00, -497.39, 0.000, 0.000, 0.000, 18:47:45.467, 1567561665467
70, -289.88, -503.45, -58.34, -480.24, 0.000, 0.000, 0.000, 18:47:45.467, 1567561665467
71, -316.87, -501.41, -72.59, -483.54, 0.000, 0.000, 0.000, 18:47:45.478, 1567561665478
72, -316.35, -513.90, -103.67, -509.49, 0.000, 0.000, 0.000, 18:47:45.478, 1567561665478
73, -300.13, -514.76, -76.58, -486.36, 0.000, 0.000, 0.000, 18:47:45.490, 1567561665490
74, -321.83, -511.46, -71.29, -477.36, 0.000, 0.000, 0.000, 18:47:45.490, 1567561665490
75, -329.67, -507.63, -96.55, -499.39, 0.000, 0.000, 0.000, 18:47:45.501, 1567561665501
76, -307.12, -506.68, -72.99, -485.26, 0.000, 0.000, 0.000, 18:47:45.501, 1567561665501
77, -304.72, -499.19, -46.36, -464.10, 0.000, 0.000, 0.000, 18:47:45.501, 1567561665501
78, -319.18, -494.22, -70.11, -487.71, 0.000, 0.000, 0.000, 18:47:45.501, 1567561665501
79, -298.90, -490.22, -68.47, -483.49, 0.000, 0.000, 0.000, 18:47:45.512, 1567561665512
80, -285.90, -490.41, -41.19, -470.83, 0.000, 0.000, 0.000, 18:47:45.512, 1567561665512
81, -309.88, -487.08, -60.55, -487.00, 0.000, 0.000, 0.000, 18:47:45.523, 1567561665523
82, -296.19, -478.16, -75.05, -493.73, 0.000, 0.000, 0.000, 18:47:45.523, 1567561665523
83, -276.16, -487.24, -49.29, -478.52, 0.000, 0.000, 0.000, 18:47:45.534, 1567561665534
84, -294.94, -486.74, -53.10, -478.69, 0.000, 0.000, 0.000, 18:47:45.534, 1567561665534
85, -296.57, -482.91, -79.41, -500.89, 0.000, 0.000, 0.000, 18:47:45.546, 1567561665546
86, -272.88, -485.93, -62.68, -489.98, 0.000, 0.000, 0.000, 18:47:45.546, 1567561665546
87, -283.14, -485.53, -46.75, -474.29, 0.000, 0.000, 0.000, 18:47:45.557, 1567561665557
88, -307.35, -483.31, -69.92, -494.29, 0.000, 0.000, 0.000, 18:47:45.557, 1567561665557
89, -290.50, -486.43, -70.44, -491.24, 0.000, 0.000, 0.000, 18:47:45.568, 1567561665568
90, -286.38, -497.56, -45.95, -466.89, 0.000, 0.000, 0.000, 18:47:45.568, 1567561665568
91, -322.26, -501.32, -77.34, -492.14, 0.000, 0.000, 0.000, 18:47:45.580, 1567561665580
92, -316.21, -504.98, -95.18, -496.57, 0.000, 0.000, 0.000, 18:47:45.580, 1567561665580
93, -300.67, -514.76, -70.79, -476.04, 0.000, 0.000, 0.000, 18:47:45.591, 1567561665591
94, -321.09, -515.65, -74.78, -480.98, 0.000, 0.000, 0.000, 18:47:45.591, 1567561665591
95, -332.30, -515.98, -105.17, -504.50, 0.000, 0.000, 0.000, 18:47:45.591, 1567561665591
96, -312.15, -514.77, -83.33, -486.71, 0.000, 0.000, 0.000, 18:47:45.591, 1567561665591
97, -308.64, -507.90, -55.83, -475.26, 0.000, 0.000, 0.000, 18:47:45.602, 1567561665602
98, -327.89, -502.09, -75.53, -491.45, 0.000, 0.000, 0.000, 18:47:45.602, 1567561665602
99, -309.52, -501.34, -73.93, -491.61, 0.000, 0.000, 0.000, 18:47:45.613, 1567561665613
100, -298.30, -501.05, -48.62, -473.90, 0.000, 0.000, 0.000, 18:47:45.613, 1567561665613
101, -323.44, -494.53, -61.79, -480.57, 0.000, 0.000, 0.000, 18:47:45.625, 1567561665625
102, -313.13, -489.41, -73.84, -489.34, 0.000, 0.000, 0.000, 18:47:45.625, 1567561665625
103, -292.29, -494.98, -55.88, -481.21, 0.000, 0.000, 0.000, 18:47:45.636, 1567561665636
104, -304.66, -493.73, -48.08, -474.27, 0.000, 0.000, 0.000, 18:47:45.636, 1567561665636
105, -308.55, -488.26, -80.53, -496.29, 0.000, 0.000, 0.000, 18:47:45.647, 1567561665647
106, -289.28, -488.13, -59.24, -482.76, 0.000, 0.000, 0.000, 18:47:45.647, 1567561665647
107, -296.06, -496.10, -48.72, -478.07, 0.000, 0.000, 0.000, 18:47:45.658, 1567561665658
108, -314.89, -493.31, -78.90, -494.45, 0.000, 0.000, 0.000, 18:47:45.658, 1567561665658
109, -290.39, -490.76, -70.39, -490.45, 0.000, 0.000, 0.000, 18:47:45.670, 1567561665670
110, -282.03, -489.06, -44.46, -473.85, 0.000, 0.000, 0.000, 18:47:45.670, 1567561665670
111, -304.08, -487.46, -64.34, -490.12, 0.000, 0.000, 0.000, 18:47:45.681, 1567561665681
112, -302.48, -494.30, -84.16, -492.82, 0.000, 0.000, 0.000, 18:47:45.681, 1567561665681
113, -286.41, -502.68, -57.59, -474.26, 0.000, 0.000, 0.000, 18:47:45.681, 1567561665681
114, -310.86, -507.85, -64.14, -476.73, 0.000, 0.000, 0.000, 18:47:45.681, 1567561665681
115, -325.37, -512.80, -93.81, -500.20, 0.000, 0.000, 0.000, 18:47:45.692, 1567561665692
116, -305.34, -513.92, -81.04, -488.40, 0.000, 0.000, 0.000, 18:47:45.692, 1567561665692
117, -314.13, -514.62, -58.01, -479.47, 0.000, 0.000, 0.000, 18:47:45.704, 1567561665704
118, -334.19, -503.51, -79.70, -488.62, 0.000, 0.000, 0.000, 18:47:45.704, 1567561665704
119, -318.15, -501.22, -71.91, -486.36, 0.000, 0.000, 0.000, 18:47:45.715, 1567561665715
120, -309.00, -501.03, -45.42, -468.68, 0.000, 0.000, 0.000, 18:47:45.715, 1567561665715
121, -326.87, -495.48, -63.39, -479.20, 0.000, 0.000, 0.000, 18:47:45.726, 1567561665726
122, -316.38, -492.42, -76.08, -487.60, 0.000, 0.000, 0.000, 18:47:45.726, 1567561665726
123, -296.88, -495.14, -52.93, -476.04, 0.000, 0.000, 0.000, 18:47:45.737, 1567561665737
124, -312.42, -494.05, -53.59, -479.29, 0.000, 0.000, 0.000, 18:47:45.737, 1567561665737
125, -317.49, -492.09, -82.12, -498.89, 0.000, 0.000, 0.000, 18:47:45.748, 1567561665748
126, -293.70, -496.56, -64.17, -485.78, 0.000, 0.000, 0.000, 18:47:45.748, 1567561665748
127, -299.22, -497.71, -48.47, -475.56, 0.000, 0.000, 0.000, 18:47:45.760, 1567561665760
128, -318.67, -492.71, -77.88, -497.64, 0.000, 0.000, 0.000, 18:47:45.760, 1567561665760
129, -302.35, -496.13, -80.19, -501.83, 0.000, 0.000, 0.000, 18:47:45.771, 1567561665771
130, -282.25, -495.98, -48.69, -478.27, 0.000, 0.000, 0.000, 18:47:45.771, 1567561665771
131, -301.54, -489.29, -67.36, -489.96, 0.000, 0.000, 0.000, 18:47:45.771, 1567561665771
132, -289.41, -485.68, -80.46, -491.09, 0.000, 0.000, 0.000, 18:47:45.771, 1567561665771
133, -277.14, -493.58, -53.31, -475.66, 0.000, 0.000, 0.000, 18:47:45.782, 1567561665782
134, -296.84, -491.16, -52.74, -469.65, 0.000, 0.000, 0.000, 18:47:45.782, 1567561665782
135, -311.67, -492.58, -77.79, -488.53, 0.000, 0.000, 0.000, 18:47:45.793, 1567561665793
136, -293.14, -495.15, -52.13, -467.06, 0.000, 0.000, 0.000, 18:47:45.793, 1567561665793
137, -304.38, -495.38, -38.85, -464.71, 0.000, 0.000, 0.000, 18:47:45.805, 1567561665805
138, -330.69, -495.01, -70.23, -481.48, 0.000, 0.000, 0.000, 18:47:45.805, 1567561665805
139, -314.32, -497.30, -66.62, -476.06, 0.000, 0.000, 0.000, 18:47:45.816, 1567561665816
140, -303.11, -500.91, -41.79, -466.49, 0.000, 0.000, 0.000, 18:47:45.816, 1567561665816
141, -327.04, -497.69, -64.58, -480.81, 0.000, 0.000, 0.000, 18:47:45.827, 1567561665827
142, -323.96, -501.86, -89.76, -504.17, 0.000, 0.000, 0.000, 18:47:45.827, 1567561665827
143, -302.01, -508.19, -63.96, -483.94, 0.000, 0.000, 0.000, 18:47:45.838, 1567561665838
144, -317.71, -502.77, -65.73, -484.49, 0.000, 0.000, 0.000, 18:47:45.838, 1567561665838
145, -322.12, -502.74, -100.18, -513.17, 0.000, 0.000, 0.000, 18:47:45.850, 1567561665850
146, -298.11, -501.58, -79.18, -499.25, 0.000, 0.000, 0.000, 18:47:45.850, 1567561665850
147, -303.55, -504.79, -57.21, -489.06, 0.000, 0.000, 0.000, 18:47:45.861, 1567561665861
148, -314.20, -498.31, -83.90, -503.80, 0.000, 0.000, 0.000, 18:47:45.861, 1567561665861
149, -300.41, -499.39, -84.66, -503.82, 0.000, 0.000, 0.000, 18:47:45.861, 1567561665861
150, -287.20, -501.75, -59.20, -484.12, 0.000, 0.000, 0.000, 18:47:45.861, 1567561665861
151, -306.57, -500.08, -81.55, -499.40, 0.000, 0.000, 0.000, 18:47:45.872, 1567561665872
152, -291.36, -489.42, -85.96, -500.58, 0.000, 0.000, 0.000, 18:47:45.872, 1567561665872
153, -270.18, -485.16, -45.28, -468.01, 0.000, 0.000, 0.000, 18:47:45.883, 1567561665883
154, -296.01, -483.84, -48.10, -475.90, 0.000, 0.000, 0.000, 18:47:45.883, 1567561665883
155, -310.26, -484.62, -75.82, -492.67, 0.000, 0.000, 0.000, 18:47:45.895, 1567561665895
156, -287.04, -483.27, -49.36, -469.65, 0.000, 0.000, 0.000, 18:47:45.895, 1567561665895
157, -290.88, -484.83, -31.64, -460.86, 0.000, 0.000, 0.000, 18:47:45.906, 1567561665906
158, -313.91, -483.11, -64.83, -487.03, 0.000, 0.000, 0.000, 18:47:45.906, 1567561665906
159, -302.60, -490.87, -67.27, -484.96, 0.000, 0.000, 0.000, 18:47:45.917, 1567561665917
160, -290.86, -497.66, -43.47, -470.04, 0.000, 0.000, 0.000, 18:47:45.917, 1567561665917
161, -319.18, -498.88, -70.75, -490.77, 0.000, 0.000, 0.000, 18:47:45.929, 1567561665929
162, -316.07, -498.80, -85.38, -498.30, 0.000, 0.000, 0.000, 18:47:45.929, 1567561665929
163, -297.91, -504.83, -62.46, -485.01, 0.000, 0.000, 0.000, 18:47:45.940, 1567561665940
164, -312.06, -504.98, -69.54, -490.42, 0.000, 0.000, 0.000, 18:47:45.940, 1567561665940
165, -320.32, -504.48, -96.47, -515.19, 0.000, 0.000, 0.000, 18:47:45.951, 1567561665951
166, -289.13, -501.30, -74.49, -490.52, 0.000, 0.000, 0.000, 18:47:45.951, 1567561665951
167, -292.55, -500.47, -54.86, -482.20, 0.000, 0.000, 0.000, 18:47:45.951, 1567561665951
168, -315.68, -504.62, -93.54, -506.60, 0.000, 0.000, 0.000, 18:47:45.951, 1567561665951
169, -298.70, -502.90, -85.78, -496.32, 0.000, 0.000, 0.000, 18:47:45.962, 1567561665962
170, -284.41, -504.86, -60.04, -478.33, 0.000, 0.000, 0.000, 18:47:45.962, 1567561665962
171, -307.49, -502.06, -78.13, -495.91, 0.000, 0.000, 0.000, 18:47:45.973, 1567561665973
172, -292.01, -488.58, -80.44, -492.73, 0.000, 0.000, 0.000, 18:47:45.973, 1567561665973
173, -269.50, -482.23, -46.62, -467.15, 0.000, 0.000, 0.000, 18:47:45.985, 1567561665985
174, -287.34, -480.00, -47.74, -478.96, 0.000, 0.000, 0.000, 18:47:45.985, 1567561665985
175, -293.47, -474.72, -66.16, -485.94, 0.000, 0.000, 0.000, 18:47:45.996, 1567561665996
176, -269.60, -472.35, -42.82, -466.39, 0.000, 0.000, 0.000, 18:47:45.996, 1567561665996
177, -281.75, -475.36, -20.89, -456.66, 0.000, 0.000, 0.000, 18:47:46.007, 1567561666007
178, -300.47, -475.97, -59.08, -483.83, 0.000, 0.000, 0.000, 18:47:46.007, 1567561666007
179, -298.22, -488.67, -65.64, -480.13, 0.000, 0.000, 0.000, 18:47:46.018, 1567561666018
180, -298.61, -497.89, -42.76, -463.66, 0.000, 0.000, 0.000, 18:47:46.018, 1567561666018
181, -322.50, -496.90, -65.15, -479.23, 0.000, 0.000, 0.000, 18:47:46.030, 1567561666030
182, -310.89, -494.68, -82.91, -488.36, 0.000, 0.000, 0.000, 18:47:46.030, 1567561666030
183, -298.85, -506.17, -60.91, -478.38, 0.000, 0.000, 0.000, 18:47:46.041, 1567561666041
184, -317.96, -509.22, -67.51, -485.81, 0.000, 0.000, 0.000, 18:47:46.041, 1567561666041
185, -332.17, -510.34, -101.27, -502.11, 0.000, 0.000, 0.000, 18:47:46.041, 1567561666041
186, -301.52, -508.38, -76.90, -487.71, 0.000, 0.000, 0.000, 18:47:46.041, 1567561666041
187, -308.94, -511.80, -61.35, -484.57, 0.000, 0.000, 0.000, 18:47:46.052, 1567561666052
188, -331.68, -512.54, -98.80, -510.00, 0.000, 0.000, 0.000, 18:47:46.052, 1567561666052
189, -310.05, -511.53, -87.70, -500.20, 0.000, 0.000, 0.000, 18:47:46.064, 1567561666064
190, -296.47, -508.82, -55.35, -473.71, 0.000, 0.000, 0.000, 18:47:46.064, 1567561666064
191, -313.77, -497.50, -72.51, -489.24, 0.000, 0.000, 0.000, 18:47:46.075, 1567561666075
192, -304.15, -493.12, -86.03, -500.24, 0.000, 0.000, 0.000, 18:47:46.075, 1567561666075
193, -276.53, -491.18, -53.87, -477.34, 0.000, 0.000, 0.000, 18:47:46.086, 1567561666086
194, -299.12, -484.25, -48.80, -478.38, 0.000, 0.000, 0.000, 18:47:46.086, 1567561666086
195, -305.19, -482.46, -73.79, -493.82, 0.000, 0.000, 0.000, 18:47:46.097, 1567561666097
196, -286.87, -492.81, -57.59, -482.47, 0.000, 0.000, 0.000, 18:47:46.097, 1567561666097
197, -289.92, -488.81, -38.50, -470.94, 0.000, 0.000, 0.000, 18:47:46.109, 1567561666109
198, -312.09, -484.52, -70.28, -493.19, 0.000, 0.000, 0.000, 18:47:46.109, 1567561666109
199, -292.71, -479.61, -57.87, -477.54, 0.000, 0.000, 0.000, 18:47:46.120, 1567561666120
200, -280.71, -480.03, -32.27, -454.52, 0.000, 0.000, 0.000, 18:47:46.120, 1567561666120
0, -307.21, -487.06, -59.77, -473.59, 0.000, 0.000, 0.000, 18:47:46.120, 1567561666120
1, -311.97, -498.09, -86.72, -497.08, 0.000, 0.000, 0.000, 18:47:46.131, 1567561666131
2, -294.25, -500.51, -57.71, -475.31, 0.000, 0.000, 0.000, 18:47:46.131, 1567561666131
3, -314.23, -503.95, -71.18, -481.40, 0.000, 0.000, 0.000, 18:47:46.142, 1567561666142
4, -319.56, -505.49, -97.37, -502.20, 0.000, 0.000, 0.000, 18:47:46.142, 1567561666142
5, -304.48, -513.56, -80.20, -488.00, 0.000, 0.000, 0.000, 18:47:46.153, 1567561666153
6, -317.88, -514.34, -63.22, -481.54, 0.000, 0.000, 0.000, 18:47:46.153, 1567561666153
7, -332.79, -511.81, -96.40, -499.86, 0.000, 0.000, 0.000, 18:47:46.165, 1567561666165
8, -310.02, -505.47, -87.10, -491.99, 0.000, 0.000, 0.000, 18:47:46.165, 1567561666165
9, -297.50, -503.31, -53.42, -473.75, 0.000, 0.000, 0.000, 18:47:46.176, 1567561666176
10, -322.43, -505.99, -79.67, -494.97, 0.000, 0.000, 0.000, 18:47:46.176, 1567561666176
11, -314.28, -497.86, -85.74, -502.80, 0.000, 0.000, 0.000, 18:47:46.176, 1567561666176
12, -291.98, -503.13, -58.45, -485.62, 0.000, 0.000, 0.000, 18:47:46.176, 1567561666176
13, -305.52, -499.01, -59.15, -486.33, 0.000, 0.000, 0.000, 18:47:46.187, 1567561666187
14, -308.61, -491.68, -81.69, -505.06, 0.000, 0.000, 0.000, 18:47:46.187, 1567561666187
15, -282.48, -488.86, -57.96, -483.75, 0.000, 0.000, 0.000, 18:47:46.198, 1567561666198
16, -283.35, -484.91, -45.52, -474.73, 0.000, 0.000, 0.000, 18:47:46.198, 1567561666198
17, -302.66, -479.76, -70.78, -494.36, 0.000, 0.000, 0.000, 18:47:46.210, 1567561666210
18, -287.82, -486.98, -69.31, -489.91, 0.000, 0.000, 0.000, 18:47:46.210, 1567561666210
19, -280.66, -485.52, -46.53, -471.06, 0.000, 0.000, 0.000, 18:47:46.221, 1567561666221
20, -312.01, -486.58, -61.72, -481.93, 0.000, 0.000, 0.000, 18:47:46.221, 1567561666221
21, -300.53, -487.57, -78.85, -492.71, 0.000, 0.000, 0.000, 18:47:46.232, 1567561666232
22, -290.87, -494.29, -45.24, -467.56, 0.000, 0.000, 0.000, 18:47:46.232, 1567561666232
23, -308.89, -494.36, -61.53, -481.87, 0.000, 0.000, 0.000, 18:47:46.243, 1567561666243
24, -313.29, -496.25, -88.15, -500.79, 0.000, 0.000, 0.000, 18:47:46.243, 1567561666243
25, -287.31, -491.22, -59.43, -482.76, 0.000, 0.000, 0.000, 18:47:46.255, 1567561666255
26, -299.15, -496.33, -49.29, -476.45, 0.000, 0.000, 0.000, 18:47:46.255, 1567561666255
27, -316.98, -493.99, -83.01, -500.03, 0.000, 0.000, 0.000, 18:47:46.266, 1567561666266
28, -299.93, -496.15, -74.59, -491.22, 0.000, 0.000, 0.000, 18:47:46.266, 1567561666266
29, -299.44, -502.23, -52.18, -476.42, 0.000, 0.000, 0.000, 18:47:46.266, 1567561666266
30, -325.70, -498.84, -68.84, -487.93, 0.000, 0.000, 0.000, 18:47:46.266, 1567561666266
31, -316.16, -499.79, -84.14, -501.33, 0.000, 0.000, 0.000, 18:47:46.277, 1567561666277
32, -295.48, -502.05, -54.79, -480.18, 0.000, 0.000, 0.000, 18:47:46.277, 1567561666277
33, -313.82, -496.24, -56.03, -481.25, 0.000, 0.000, 0.000, 18:47:46.289, 1567561666289
34, -317.48, -499.01, -91.18, -503.11, 0.000, 0.000, 0.000, 18:47:46.289, 1567561666289
35, -299.15, -500.85, -67.41, -483.14, 0.000, 0.000, 0.000, 18:47:46.300, 1567561666300
36, -302.89, -503.38, -52.83, -477.81, 0.000, 0.000, 0.000, 18:47:46.300, 1567561666300
37, -315.48, -491.20, -82.47, -498.54, 0.000, 0.000, 0.000, 18:47:46.311, 1567561666311
38, -295.91, -496.41, -79.64, -493.49, 0.000, 0.000, 0.000, 18:47:46.311, 1567561666311
39, -287.61, -494.18, -46.00, -470.40, 0.000, 0.000, 0.000, 18:47:46.322, 1567561666322
40, -309.77, -492.49, -65.63, -486.71, 0.000, 0.000, 0.000, 18:47:46.322, 1567561666322
41, -302.01, -490.84, -82.63, -496.74, 0.000, 0.000, 0.000, 18:47:46.333, 1567561666333
42, -281.47, -488.79, -45.72, -476.12, 0.000, 0.000, 0.000, 18:47:46.333, 1567561666333
43, -303.44, -489.82, -57.38, -478.83, 0.000, 0.000, 0.000, 18:47:46.345, 1567561666345
44, -307.01, -489.44, -78.01, -491.35, 0.000, 0.000, 0.000, 18:47:46.345, 1567561666345
45, -282.46, -488.41, -53.60, -470.93, 0.000, 0.000, 0.000, 18:47:46.356, 1567561666356
46, -293.65, -497.32, -48.72, -469.35, 0.000, 0.000, 0.000, 18:47:46.356, 1567561666356
47, -314.84, -495.11, -80.96, -492.49, 0.000, 0.000, 0.000, 18:47:46.356, 1567561666356
48, -298.73, -499.10, -77.36, -486.42, 0.000, 0.000, 0.000, 18:47:46.356, 1567561666356
49, -289.09, -494.30, -46.45, -464.06, 0.000, 0.000, 0.000, 18:47:46.367, 1567561666367
50, -316.29, -501.20, -78.50, -487.41, 0.000, 0.000, 0.000, 18:47:46.367, 1567561666367
51, -311.71, -502.78, -91.48, -496.97, 0.000, 0.000, 0.000, 18:47:46.378, 1567561666378
52, -292.27, -502.53, -58.65, -476.97, 0.000, 0.000, 0.000, 18:47:46.378, 1567561666378
53, -307.16, -499.80, -64.97, -484.37, 0.000, 0.000, 0.000, 18:47:46.390, 1567561666390
54, -312.49, -494.69, -91.15, -499.63, 0.000, 0.000, 0.000, 18:47:46.390, 1567561666390
55, -284.92, -491.93, -62.18, -479.27, 0.000, 0.000, 0.000, 18:47:46.401, 1567561666401
56, -295.18, -492.74, -46.77, -471.28, 0.000, 0.000, 0.000, 18:47:46.401, 1567561666401
57, -315.72, -496.32, -80.44, -496.91, 0.000, 0.000, 0.000, 18:47:46.412, 1567561666412
58, -289.28, -492.13, -70.82, -485.17, 0.000, 0.000, 0.000, 18:47:46.412, 1567561666412
59, -282.11, -490.00, -39.42, -463.31, 0.000, 0.000, 0.000, 18:47:46.423, 1567561666423
60, -307.64, -489.97, -66.86, -488.72, 0.000, 0.000, 0.000, 18:47:46.423, 1567561666423
61, -301.96, -487.59, -76.97, -493.58, 0.000, 0.000, 0.000, 18:47:46.435, 1567561666435
62, -284.21, -489.93, -52.62, -476.71, 0.000, 0.000, 0.000, 18:47:46.435, 1567561666435
63, -301.09, -488.07, -49.30, -474.62, 0.000, 0.000, 0.000, 18:47:46.446, 1567561666446
64, -306.40, -484.33, -78.88, -496.42, 0.000, 0.000, 0.000, 18:47:46.446, 1567561666446
65, -290.36, -495.07, -61.27, -482.86, 0.000, 0.000, 0.000, 18:47:46.447, 1567561666447
66, -293.10, -492.49, -46.12, -467.54, 0.000, 0.000, 0.000, 18:47:46.447, 1567561666447
67, -314.72, -487.57, -79.57, -498.14, 0.000, 0.000, 0.000, 18:47:46.457, 1567561666457
68, -293.84, -493.88, -74.46, -488.77, 0.000, 0.000, 0.000, 18:47:46.457, 1567561666457
69, -289.56, -497.34, -52.69, -474.79, 0.000, 0.000, 0.000, 18:47:46.468, 1567561666468
70, -320.09, -500.95, -81.69, -492.60, 0.000, 0.000, 0.000, 18:47:46.468, 1567561666468
71, -311.60, -506.45, -97.71, -497.72, 0.000, 0.000, 0.000, 18:47:46.480, 1567561666480
72, -295.28, -509.28, -66.46, -475.26, 0.000, 0.000, 0.000, 18:47:46.480, 1567561666480
73, -318.41, -510.83, -73.68, -479.23, 0.000, 0.000, 0.000, 18:47:46.491, 1567561666491
74, -326.23, -507.86, -100.67, -498.30, 0.000, 0.000, 0.000, 18:47:46.491, 1567561666491
75, -299.80, -508.64, -72.97, -478.98, 0.000, 0.000, 0.000, 18:47:46.502, 1567561666502
76, -302.40, -502.96, -53.93, -468.79, 0.000, 0.000, 0.000, 18:47:46.502, 1567561666502
77, -324.11, -499.95, -83.83, -493.32, 0.000, 0.000, 0.000, 18:47:46.514, 1567561666514
78, -304.90, -506.23, -80.84, -487.89, 0.000, 0.000, 0.000, 18:47:46.514, 1567561666514
79, -290.83, -501.49, -53.42, -475.19, 0.000, 0.000, 0.000, 18:47:46.525, 1567561666525
80, -307.59, -495.54, -69.21, -485.13, 0.000, 0.000, 0.000, 18:47:46.525, 1567561666525
81, -300.14, -488.69, -79.68, -495.88, 0.000, 0.000, 0.000, 18:47:46.536, 1567561666536
82, -277.61, -486.36, -45.54, -474.01, 0.000, 0.000, 0.000, 18:47:46.536, 1567561666536
83, -300.93, -481.45, -46.64, -475.44, 0.000, 0.000, 0.000, 18:47:46.537, 1567561666537
84, -311.27, -486.67, -84.19, -499.51, 0.000, 0.000, 0.000, 18:47:46.537, 1567561666537
85, -290.26, -488.27, -62.53, -482.02, 0.000, 0.000, 0.000, 18:47:46.547, 1567561666547
86, -293.69, -486.80, -42.67, -474.59, 0.000, 0.000, 0.000, 18:47:46.547, 1567561666547
87, -313.46, -485.47, -79.68, -496.83, 0.000, 0.000, 0.000, 18:47:46.559, 1567561666559
88, -291.63, -485.39, -76.66, -491.64, 0.000, 0.000, 0.000, 18:47:46.559, 1567561666559
89, -285.06, -488.01, -47.24, -477.44, 0.000, 0.000, 0.000, 18:47:46.570, 1567561666570
90, -304.26, -488.57, -67.21, -489.76, 0.000, 0.000, 0.000, 18:47:46.570, 1567561666570
91, -299.48, -488.23, -84.20, -494.09, 0.000, 0.000, 0.000, 18:47:46.581, 1567561666581
92, -281.23, -492.70, -52.67, -471.08, 0.000, 0.000, 0.000, 18:47:46.581, 1567561666581
93, -307.45, -491.54, -57.69, -478.90, 0.000, 0.000, 0.000, 18:47:46.592, 1567561666592
94, -318.58, -493.28, -85.56, -496.14, 0.000, 0.000, 0.000, 18:47:46.592, 1567561666592
95, -298.53, -502.05, -68.28, -488.72, 0.000, 0.000, 0.000, 18:47:46.603, 1567561666603
96, -305.30, -506.00, -53.95, -475.86, 0.000, 0.000, 0.000, 18:47:46.603, 1567561666603
97, -323.71, -507.21, -83.48, -494.33, 0.000, 0.000, 0.000, 18:47:46.615, 1567561666615
98, -299.35, -500.25, -76.49, -486.65, 0.000, 0.000, 0.000, 18:47:46.615, 1567561666615
99, -296.59, -502.42, -48.35, -469.18, 0.000, 0.000, 0.000, 18:47:46.626, 1567561666626
100, -313.05, -498.61, -74.89, -488.76, 0.000, 0.000, 0.000, 18:47:46.626, 1567561666626
101, -306.75, -493.02, -78.93, -493.41, 0.000, 0.000, 0.000, 18:47:46.626, 1567561666626
102, -286.52, -495.03, -52.85, -470.89, 0.000, 0.000, 0.000, 18:47:46.626, 1567561666626
103, -302.97, -488.77, -56.48, -472.60, 0.000, 0.000, 0.000, 18:47:46.637, 1567561666637
104, -308.76, -483.48, -77.99, -495.55, 0.000, 0.000, 0.000, 18:47:46.637, 1567561666637
105, -281.41, -491.81, -69.64, -484.27, 0.000, 0.000, 0.000, 18:47:46.648, 1567561666648
106, -286.96, -492.14, -56.04, -481.21, 0.000, 0.000, 0.000, 18:47:46.648, 1567561666648
107, -303.66, -489.06, -81.32, -498.79, 0.000, 0.000, 0.000, 18:47:46.660, 1567561666660
108, -279.07, -481.35, -70.22, -486.12, 0.000, 0.000, 0.000, 18:47:46.660, 1567561666660
109, -272.65, -478.72, -38.81, -467.47, 0.000, 0.000, 0.000, 18:47:46.671, 1567561666671
110, -297.39, -481.89, -63.52, -489.72, 0.000, 0.000, 0.000, 18:47:46.671, 1567561666671
111, -290.73, -486.25, -82.10, -494.12, 0.000, 0.000, 0.000, 18:47:46.682, 1567561666682
112, -274.92, -489.46, -45.19, -464.06, 0.000, 0.000, 0.000, 18:47:46.682, 1567561666682
113, -297.52, -494.68, -51.85, -468.57, 0.000, 0.000, 0.000, 18:47:46.694, 1567561666694
114, -310.81, -503.97, -93.36, -498.80, 0.000, 0.000, 0.000, 18:47:46.694, 1567561666694
115, -295.31, -510.31, -72.67, -479.75, 0.000, 0.000, 0.000, 18:47:46.705, 1567561666705
116, -309.55, -510.12, -58.66, -469.93, 0.000, 0.000, 0.000, 18:47:46.705, 1567561666705
117, -322.87, -494.04, -74.03, -482.16, 0.000, 0.000, 0.000, 18:47:46.716, 1567561666716
118, -314.09, -501.63, -78.03, -489.67, 0.000, 0.000, 0.000, 18:47:46.716, 1567561666716
119, -314.31, -510.34, -61.70, -483.42, 0.000, 0.000, 0.000, 18:47:46.716, 1567561666716
120, -330.41, -505.39, -84.41, -498.71, 0.000, 0.000, 0.000, 18:47:46.716, 1567561666716
121, -319.07, -502.86, -94.43, -497.84, 0.000, 0.000, 0.000, 18:47:46.727, 1567561666727
122, -297.55, -504.25, -63.55, -477.73, 0.000, 0.000, 0.000, 18:47:46.727, 1567561666727
123, -317.24, -503.77, -77.53, -492.72, 0.000, 0.000, 0.000, 18:47:46.738, 1567561666738
124, -315.70, -496.52, -96.38, -501.65, 0.000, 0.000, 0.000, 18:47:46.738, 1567561666738
125, -281.52, -488.08, -66.39, -482.97, 0.000, 0.000, 0.000, 18:47:46.750, 1567561666750
126, -287.71, -485.78, -52.77, -476.56, 0.000, 0.000, 0.000, 18:47:46.750, 1567561666750
127, -296.88, -479.73, -77.94, -497.06, 0.000, 0.000, 0.000, 18:47:46.761, 1567561666761
128, -277.93, -480.53, -69.24, -488.08, 0.000, 0.000, 0.000, 18:47:46.761, 1567561666761
129, -276.52, -485.31, -42.70, -470.51, 0.000, 0.000, 0.000, 18:47:46.772, 1567561666772
130, -302.00, -483.79, -66.20, -490.66, 0.000, 0.000, 0.000, 18:47:46.772, 1567561666772
131, -294.99, -486.99, -84.07, -496.43, 0.000, 0.000, 0.000, 18:47:46.783, 1567561666783
132, -280.77, -491.13, -49.08, -472.34, 0.000, 0.000, 0.000, 18:47:46.783, 1567561666783
133, -304.74, -493.20, -56.37, -476.35, 0.000, 0.000, 0.000, 18:47:46.795, 1567561666795
134, -314.93, -494.99, -79.02, -489.94, 0.000, 0.000, 0.000, 18:47:46.795, 1567561666795
135, -293.81, -496.23, -51.77, -471.14, 0.000, 0.000, 0.000, 18:47:46.806, 1567561666806
136, -303.66, -493.97, -43.75, -457.33, 0.000, 0.000, 0.000, 18:47:46.806, 1567561666806
137, -323.66, -492.92, -73.64, -478.81, 0.000, 0.000, 0.000, 18:47:46.807, 1567561666807
138, -314.88, -511.03, -82.83, -485.57, 0.000, 0.000, 0.000, 18:47:46.807, 1567561666807
139, -309.65, -511.04, -62.09, -474.89, 0.000, 0.000, 0.000, 18:47:46.817, 1567561666817
140, -336.90, -512.49, -84.29, -487.59, 0.000, 0.000, 0.000, 18:47:46.817, 1567561666817
141, -325.89, -513.10, -101.00, -503.61, 0.000, 0.000, 0.000, 18:47:46.829, 1567561666829
142, -305.01, -518.23, -75.08, -485.71, 0.000, 0.000, 0.000, 18:47:46.829, 1567561666829
143, -320.34, -515.08, -82.92, -496.47, 0.000, 0.000, 0.000, 18:47:46.840, 1567561666840
144, -317.52, -502.15, -95.99, -502.77, 0.000, 0.000, 0.000, 18:47:46.840, 1567561666840
145, -287.10, -499.89, -77.35, -493.24, 0.000, 0.000, 0.000, 18:47:46.851, 1567561666851
146, -288.61, -493.54, -55.60, -479.85, 0.000, 0.000, 0.000, 18:47:46.851, 1567561666851
147, -305.68, -488.81, -88.03, -507.60, 0.000, 0.000, 0.000, 18:47:46.862, 1567561666862
148, -278.97, -482.38, -78.26, -497.03, 0.000, 0.000, 0.000, 18:47:46.862, 1567561666862
149, -275.86, -483.78, -48.27, -472.55, 0.000, 0.000, 0.000, 18:47:46.873, 1567561666873
150, -297.01, -481.13, -65.81, -485.61, 0.000, 0.000, 0.000, 18:47:46.873, 1567561666873
151, -289.44, -482.53, -71.60, -486.62, 0.000, 0.000, 0.000, 18:47:46.885, 1567561666885
152, -276.38, -483.44, -40.99, -463.59, 0.000, 0.000, 0.000, 18:47:46.885, 1567561666885
153, -294.06, -477.33, -42.53, -468.10, 0.000, 0.000, 0.000, 18:47:46.896, 1567561666896
154, -297.48, -476.21, -65.95, -485.59, 0.000, 0.000, 0.000, 18:47:46.896, 1567561666896
155, -279.83, -481.45, -46.39, -467.86, 0.000, 0.000, 0.000, 18:47:46.896, 1567561666896
156, -293.64, -484.70, -37.24, -466.02, 0.000, 0.000, 0.000, 18:47:46.896, 1567561666896
157, -310.66, -477.70, -64.61, -481.49, 0.000, 0.000, 0.000, 18:47:46.907, 1567561666907
158, -295.71, -489.36, -69.55, -478.93, 0.000, 0.000, 0.000, 18:47:46.907, 1567561666907
159, -293.98, -495.37, -43.92, -458.34, 0.000, 0.000, 0.000, 18:47:46.918, 1567561666918
160, -318.34, -494.46, -74.12, -487.37, 0.000, 0.000, 0.000, 18:47:46.918, 1567561666918
161, -314.47, -497.45, -89.03, -492.35, 0.000, 0.000, 0.000, 18:47:46.930, 1567561666930
162, -298.88, -512.35, -64.26, -484.01, 0.000, 0.000, 0.000, 18:47:46.930, 1567561666930
163, -321.49, -510.89, -75.22, -492.31, 0.000, 0.000, 0.000, 18:47:46.941, 1567561666941
164, -321.82, -507.34, -101.84, -506.87, 0.000, 0.000, 0.000, 18:47:46.941, 1567561666941
165, -302.18, -510.99, -78.76, -494.16, 0.000, 0.000, 0.000, 18:47:46.952, 1567561666952
166, -304.67, -506.97, -63.60, -488.12, 0.000, 0.000, 0.000, 18:47:46.952, 1567561666952
167, -321.96, -503.59, -91.38, -506.52, 0.000, 0.000, 0.000, 18:47:46.963, 1567561666963
168, -297.19, -503.23, -81.73, -499.61, 0.000, 0.000, 0.000, 18:47:46.963, 1567561666963
169, -297.80, -506.92, -53.65, -478.52, 0.000, 0.000, 0.000, 18:47:46.975, 1567561666975
170, -328.68, -508.42, -84.57, -500.27, 0.000, 0.000, 0.000, 18:47:46.975, 1567561666975
171, -314.70, -500.47, -87.62, -501.73, 0.000, 0.000, 0.000, 18:47:46.986, 1567561666986
172, -292.62, -498.40, -47.84, -474.52, 0.000, 0.000, 0.000, 18:47:46.986, 1567561666986
173, -306.82, -487.73, -48.91, -475.13, 0.000, 0.000, 0.000, 18:47:46.987, 1567561666987
174, -299.43, -474.54, -61.61, -483.67, 0.000, 0.000, 0.000, 18:47:46.987, 1567561666987
175, -281.68, -482.20, -51.65, -475.23, 0.000, 0.000, 0.000, 18:47:46.997, 1567561666997
176, -289.48, -482.60, -37.35, -462.20, 0.000, 0.000, 0.000, 18:47:46.997, 1567561666997
177, -304.17, -476.73, -64.37, -480.30, 0.000, 0.000, 0.000, 18:47:47.008, 1567561667008
178, -286.80, -483.72, -66.31, -487.52, 0.000, 0.000, 0.000, 18:47:47.008, 1567561667008
179, -285.57, -491.39, -46.25, -473.23, 0.000, 0.000, 0.000, 18:47:47.020, 1567561667020
180, -308.62, -490.46, -63.04, -482.16, 0.000, 0.000, 0.000, 18:47:47.020, 1567561667020
181, -313.58, -497.22, -86.22, -497.32, 0.000, 0.000, 0.000, 18:47:47.031, 1567561667031
182, -292.57, -501.49, -58.62, -471.33, 0.000, 0.000, 0.000, 18:47:47.031, 1567561667031
183, -316.57, -505.81, -71.53, -483.10, 0.000, 0.000, 0.000, 18:47:47.042, 1567561667042
184, -322.22, -505.34, -101.31, -503.85, 0.000, 0.000, 0.000, 18:47:47.042, 1567561667042
185, -300.67, -509.23, -78.52, -488.46, 0.000, 0.000, 0.000, 18:47:47.053, 1567561667053
186, -308.38, -511.93, -66.56, -482.29, 0.000, 0.000, 0.000, 18:47:47.053, 1567561667053
187, -333.41, -515.41, -104.11, -508.74, 0.000, 0.000, 0.000, 18:47:47.065, 1567561667065
188, -303.95, -509.91, -87.72, -491.51, 0.000, 0.000, 0.000, 18:47:47.065, 1567561667065
189, -295.79, -505.11, -56.77, -469.78, 0.000, 0.000, 0.000, 18:47:47.076, 1567561667076
190, -321.39, -502.08, -74.67, -488.92, 0.000, 0.000, 0.000, 18:47:47.076, 1567561667076
191, -309.31, -495.12, -79.11, -493.80, 0.000, 0.000, 0.000, 18:47:47.077, 1567561667077
192, -288.29, -487.66, -41.54, -468.32, 0.000, 0.000, 0.000, 18:47:47.077, 1567561667077
193, -307.28, -485.10, -49.70, -477.29, 0.000, 0.000, 0.000, 18:47:47.087, 1567561667087
194, -306.91, -483.66, -72.38, -495.83, 0.000, 0.000, 0.000, 18:47:47.087, 1567561667087
195, -288.54, -486.20, -50.64, -480.08, 0.000, 0.000, 0.000, 18:47:47.099, 1567561667099
196, -295.19, -485.19, -40.10, -476.79, 0.000, 0.000, 0.000, 18:47:47.099, 1567561667099
197, -312.44, -482.23, -68.13, -491.76, 0.000, 0.000, 0.000, 18:47:47.110, 1567561667110
198, -284.93, -482.08, -62.27, -480.64, 0.000, 0.000, 0.000, 18:47:47.110, 1567561667110
199, -276.58, -482.33, -33.51, -455.68, 0.000, 0.000, 0.000, 18:47:47.121, 1567561667121
200, -300.39, -484.60, -62.06, -478.23, 0.000, 0.000, 0.000, 18:47:47.121, 1567561667121
0, -302.60, -490.07, -81.47, -487.72, 0.000, 0.000, 0.000, 18:47:47.122, 1567561667122
1, -290.33, -498.76, -53.60, -471.28, 0.000, 0.000, 0.000, 18:47:47.132, 1567561667132
2, -307.01, -495.43, -62.92, -474.92, 0.000, 0.000, 0.000, 18:47:47.132, 1567561667132
3, -319.42, -512.21, -98.55, -505.97, 0.000, 0.000, 0.000, 18:47:47.144, 1567561667144
4, -301.30, -512.29, -70.97, -477.94, 0.000, 0.000, 0.000, 18:47:47.144, 1567561667144
5, -315.28, -515.35, -72.15, -476.85, 0.000, 0.000, 0.000, 18:47:47.155, 1567561667155
6, -329.43, -512.52, -93.02, -494.33, 0.000, 0.000, 0.000, 18:47:47.155, 1567561667155
7, -306.71, -507.98, -84.47, -490.65, 0.000, 0.000, 0.000, 18:47:47.166, 1567561667166
8, -305.20, -512.33, -60.23, -479.53, 0.000, 0.000, 0.000, 18:47:47.166, 1567561667166
9, -324.30, -506.94, -80.40, -498.05, 0.000, 0.000, 0.000, 18:47:47.177, 1567561667177
10, -299.53, -490.62, -80.55, -495.34, 0.000, 0.000, 0.000, 18:47:47.177, 1567561667177
11, -284.14, -491.01, -51.05, -474.01, 0.000, 0.000, 0.000, 18:47:47.189, 1567561667189
12, -302.14, -489.75, -59.24, -492.90, 0.000, 0.000, 0.000, 18:47:47.189, 1567561667189
13, -303.00, -484.03, -86.94, -501.86, 0.000, 0.000, 0.000, 18:47:47.200, 1567561667200
14, -275.51, -480.37, -56.92, -477.15, 0.000, 0.000, 0.000, 18:47:47.200, 1567561667200
15, -283.04, -483.10, -42.11, -472.72, 0.000, 0.000, 0.000, 18:47:47.211, 1567561667211
16, -304.29, -479.90, -77.13, -494.00, 0.000, 0.000, 0.000, 18:47:47.211, 1567561667211
17, -278.30, -477.77, -54.86, -478.38, 0.000, 0.000, 0.000, 18:47:47.212, 1567561667212
18, -268.70, -473.47, -30.16, -456.98, 0.000, 0.000, 0.000, 18:47:47.212, 1567561667212
19, -295.29, -475.99, -63.83, -482.02, 0.000, 0.000, 0.000, 18:47:47.222, 1567561667222
20, -286.62, -471.73, -64.90, -485.35, 0.000, 0.000, 0.000, 18:47:47.222, 1567561667222
21, -271.02, -476.09, -34.48, -461.77, 0.000, 0.000, 0.000, 18:47:47.233, 1567561667233
22, -295.70, -479.84, -48.61, -471.04, 0.000, 0.000, 0.000, 18:47:47.233, 1567561667233
23, -309.81, -484.25, -74.97, -490.77, 0.000, 0.000, 0.000, 18:47:47.245, 1567561667245
24, -293.73, -495.86, -57.51, -474.29, 0.000, 0.000, 0.000, 18:47:47.245, 1567561667245
25, -313.48, -506.09, -56.14, -467.01, 0.000, 0.000, 0.000, 18:47:47.256, 1567561667256
26, -325.44, -509.22, -86.98, -491.00, 0.000, 0.000, 0.000, 18:47:47.256, 1567561667256
27, -309.45, -512.01, -80.86, -488.66, 0.000, 0.000, 0.000, 18:47:47.267, 1567561667267
28, -304.04, -510.41, -59.42, -471.68, 0.000, 0.000, 0.000, 18:47:47.267, 1567561667267
29, -330.74, -509.24, -86.44, -492.33, 0.000, 0.000, 0.000, 18:47:47.278, 1567561667278
30, -316.54, -506.38, -98.44, -506.22, 0.000, 0.000, 0.000, 18:47:47.278, 1567561667278
31, -300.98, -503.56, -62.70, -479.56, 0.000, 0.000, 0.000, 18:47:47.290, 1567561667290
32, -319.34, -502.89, -68.65, -486.06, 0.000, 0.000, 0.000, 18:47:47.290, 1567561667290
33, -321.11, -503.29, -89.69, -503.85, 0.000, 0.000, 0.000, 18:47:47.301, 1567561667301
34, -292.24, -495.52, -66.46, -490.38, 0.000, 0.000, 0.000, 18:47:47.301, 1567561667301
35, -304.20, -496.17, -54.36, -488.23, 0.000, 0.000, 0.000, 18:47:47.302, 1567561667302
36, -324.37, -490.64, -90.09, -509.12, 0.000, 0.000, 0.000, 18:47:47.302, 1567561667302
37, -289.07, -491.42, -76.75, -498.47, 0.000, 0.000, 0.000, 18:47:47.312, 1567561667312
38, -284.54, -493.72, -46.71, -478.33, 0.000, 0.000, 0.000, 18:47:47.312, 1567561667312
39, -310.69, -489.92, -70.76, -493.14, 0.000, 0.000, 0.000, 18:47:47.323, 1567561667323
40, -294.07, -485.18, -74.23, -491.82, 0.000, 0.000, 0.000, 18:47:47.323, 1567561667323
41, -275.32, -491.52, -51.47, -476.90, 0.000, 0.000, 0.000, 18:47:47.335, 1567561667335
42, -295.49, -485.47, -57.09, -480.26, 0.000, 0.000, 0.000, 18:47:47.335, 1567561667335
43, -297.52, -485.07, -81.10, -489.78, 0.000, 0.000, 0.000, 18:47:47.346, 1567561667346
44, -279.50, -484.42, -47.46, -476.90, 0.000, 0.000, 0.000, 18:47:47.346, 1567561667346
45, -306.49, -499.29, -57.70, -481.41, 0.000, 0.000, 0.000, 18:47:47.357, 1567561667357
46, -318.75, -495.84, -81.99, -497.53, 0.000, 0.000, 0.000, 18:47:47.357, 1567561667357
47, -301.87, -498.10, -69.08, -485.14, 0.000, 0.000, 0.000, 18:47:47.368, 1567561667368
48, -294.83, -498.90, -45.91, -468.29, 0.000, 0.000, 0.000, 18:47:47.368, 1567561667368
49, -320.01, -500.06, -75.24, -491.14, 0.000, 0.000, 0.000, 18:47:47.380, 1567561667380
50, -307.75, -496.97, -81.49, -493.79, 0.000, 0.000, 0.000, 18:47:47.380, 1567561667380
51, -297.66, -501.39, -57.62, -482.17, 0.000, 0.000, 0.000, 18:47:47.391, 1567561667391
52, -320.15, -499.21, -71.75, -483.69, 0.000, 0.000, 0.000, 18:47:47.391, 1567561667391
53, -320.93, -499.48, -96.60, -507.45, 0.000, 0.000, 0.000, 18:47:47.391, 1567561667391
54, -308.11, -508.31, -73.16, -488.18, 0.000, 0.000, 0.000, 18:47:47.391, 1567561667391
55, -302.62, -495.47, -56.04, -476.49, 0.000, 0.000, 0.000, 18:47:47.402, 1567561667402
56, -319.67, -496.48, -89.31, -502.31, 0.000, 0.000, 0.000, 18:47:47.402, 1567561667402
57, -297.00, -497.25, -83.30, -496.50, 0.000, 0.000, 0.000, 18:47:47.413, 1567561667413
58, -286.94, -498.24, -58.31, -482.69, 0.000, 0.000, 0.000, 18:47:47.413, 1567561667413
59, -311.30, -497.18, -79.01, -497.82, 0.000, 0.000, 0.000, 18:47:47.425, 1567561667425
60, -295.74, -489.80, -82.04, -490.62, 0.000, 0.000, 0.000, 18:47:47.425, 1567561667425
61, -276.39, -485.98, -48.62, -468.53, 0.000, 0.000, 0.000, 18:47:47.436, 1567561667436
62, -296.25, -488.89, -63.43, -479.67, 0.000, 0.000, 0.000, 18:47:47.436, 1567561667436
63, -299.74, -487.64, -79.67, -493.38, 0.000, 0.000, 0.000, 18:47:47.447, 1567561667447
64, -286.18, -491.95, -58.50, -484.31, 0.000, 0.000, 0.000, 18:47:47.447, 1567561667447
65, -294.70, -488.93, -48.41, -472.59, 0.000, 0.000, 0.000, 18:47:47.458, 1567561667458
66, -300.56, -480.60, -67.68, -488.30, 0.000, 0.000, 0.000, 18:47:47.458, 1567561667458
67, -286.35, -488.07, -62.34, -485.20, 0.000, 0.000, 0.000, 18:47:47.470, 1567561667470
68, -281.97, -482.35, -31.26, -464.64, 0.000, 0.000, 0.000, 18:47:47.470, 1567561667470
69, -303.85, -479.24, -55.83, -478.77, 0.000, 0.000, 0.000, 18:47:47.481, 1567561667481
70, -296.71, -484.23, -73.24, -491.19, 0.000, 0.000, 0.000, 18:47:47.481, 1567561667481
71, -279.71, -490.11, -42.82, -462.93, 0.000, 0.000, 0.000, 18:47:47.482, 1567561667482
72, -306.16, -491.75, -57.95, -476.40, 0.000, 0.000, 0.000, 18:47:47.482, 1567561667482
73, -308.75, -489.58, -82.51, -496.65, 0.000, 0.000, 0.000, 18:47:47.492, 1567561667492
74, -284.92, -494.82, -60.18, -480.81, 0.000, 0.000, 0.000, 18:47:47.492, 1567561667492
75, -302.78, -498.69, -57.27, -481.22, 0.000, 0.000, 0.000, 18:47:47.503, 1567561667503
76, -320.22, -499.98, -96.04, -506.61, 0.000, 0.000, 0.000, 18:47:47.503, 1567561667503
77, -297.11, -494.89, -74.73, -490.78, 0.000, 0.000, 0.000, 18:47:47.515, 1567561667515
78, -286.60, -487.90, -47.04, -469.36, 0.000, 0.000, 0.000, 18:47:47.515, 1567561667515
79, -310.54, -486.21, -67.48, -479.96, 0.000, 0.000, 0.000, 18:47:47.526, 1567561667526
80, -301.63, -494.50, -73.96, -485.48, 0.000, 0.000, 0.000, 18:47:47.526, 1567561667526
81, -283.67, -493.47, -44.74, -469.60, 0.000, 0.000, 0.000, 18:47:47.537, 1567561667537
82, -310.39, -494.86, -60.36, -478.91, 0.000, 0.000, 0.000, 18:47:47.537, 1567561667537
83, -306.49, -497.38, -84.66, -490.22, 0.000, 0.000, 0.000, 18:47:47.548, 1567561667548
84, -288.14, -500.33, -55.26, -471.55, 0.000, 0.000, 0.000, 18:47:47.548, 1567561667548
85, -308.83, -500.23, -50.12, -466.38, 0.000, 0.000, 0.000, 18:47:47.560, 1567561667560
86, -327.36, -502.97, -84.73, -491.48, 0.000, 0.000, 0.000, 18:47:47.560, 1567561667560
87, -305.45, -496.13, -68.22, -484.87, 0.000, 0.000, 0.000, 18:47:47.571, 1567561667571
88, -297.32, -500.15, -43.99, -463.36, 0.000, 0.000, 0.000, 18:47:47.571, 1567561667571
89, -326.06, -497.78, -74.00, -486.66, 0.000, 0.000, 0.000, 18:47:47.572, 1567561667572
90, -319.06, -501.98, -88.64, -499.58, 0.000, 0.000, 0.000, 18:47:47.572, 1567561667572
91, -309.63, -509.12, -72.60, -486.51, 0.000, 0.000, 0.000, 18:47:47.582, 1567561667582
92, -322.17, -503.13, -76.42, -485.66, 0.000, 0.000, 0.000, 18:47:47.582, 1567561667582
93, -320.50, -504.33, -102.66, -509.24, 0.000, 0.000, 0.000, 18:47:47.593, 1567561667593
94, -299.06, -509.52, -85.35, -492.14, 0.000, 0.000, 0.000, 18:47:47.593, 1567561667593
95, -307.27, -509.16, -74.89, -488.31, 0.000, 0.000, 0.000, 18:47:47.605, 1567561667605
96, -329.90, -507.85, -108.16, -515.65, 0.000, 0.000, 0.000, 18:47:47.605, 1567561667605
97, -300.78, -510.34, -96.12, -502.97, 0.000, 0.000, 0.000, 18:47:47.616, 1567561667616
98, -293.30, -506.57, -66.57, -483.72, 0.000, 0.000, 0.000, 18:47:47.616, 1567561667616
99, -315.22, -504.16, -83.28, -500.86, 0.000, 0.000, 0.000, 18:47:47.627, 1567561667627
100, -307.49, -498.27, -89.13, -494.02, 0.000, 0.000, 0.000, 18:47:47.627, 1567561667627
101, -287.33, -494.36, -49.01, -468.69, 0.000, 0.000, 0.000, 18:47:47.638, 1567561667638
102, -306.09, -485.44, -51.39, -477.69, 0.000, 0.000, 0.000, 18:47:47.638, 1567561667638
103, -314.03, -484.80, -78.18, -490.79, 0.000, 0.000, 0.000, 18:47:47.650, 1567561667650
104, -281.41, -478.32, -39.49, -460.07, 0.000, 0.000, 0.000, 18:47:47.650, 1567561667650
105, -297.52, -479.85, -33.14, -458.83, 0.000, 0.000, 0.000, 18:47:47.661, 1567561667661
106, -310.59, -480.49, -63.85, -479.02, 0.000, 0.000, 0.000, 18:47:47.661, 1567561667661
107, -294.06, -486.41, -54.29, -481.22, 0.000, 0.000, 0.000, 18:47:47.662, 1567561667662
108, -285.03, -481.88, -27.72, -456.20, 0.000, 0.000, 0.000, 18:47:47.662, 1567561667662
109, -312.60, -484.31, -64.14, -483.80, 0.000, 0.000, 0.000, 18:47:47.672, 1567561667672
110, -306.52, -495.83, -82.33, -497.00, 0.000, 0.000, 0.000, 18:47:47.672, 1567561667672
111, -290.69, -498.91, -57.96, -474.66, 0.000, 0.000, 0.000, 18:47:47.683, 1567561667683
112, -317.29, -506.42, -83.66, -494.12, 0.000, 0.000, 0.000, 18:47:47.683, 1567561667683
113, -327.83, -512.79, -109.10, -513.37, 0.000, 0.000, 0.000, 18:47:47.695, 1567561667695
114, -307.96, -520.06, -87.50, -495.41, 0.000, 0.000, 0.000, 18:47:47.695, 1567561667695
115, -315.47, -515.39, -74.31, -492.46, 0.000, 0.000, 0.000, 18:47:47.706, 1567561667706
116, -330.43, -509.16, -100.88, -509.66, 0.000, 0.000, 0.000, 18:47:47.706, 1567561667706
117, -299.48, -501.26, -86.32, -495.88, 0.000, 0.000, 0.000, 18:47:47.717, 1567561667717
118, -301.04, -514.56, -67.85, -489.58, 0.000, 0.000, 0.000, 18:47:47.717, 1567561667717
119, -321.45, -512.01, -88.93, -497.71, 0.000, 0.000, 0.000, 18:47:47.729, 1567561667729
120, -310.28, -507.31, -91.66, -503.89, 0.000, 0.000, 0.000, 18:47:47.729, 1567561667729
121, -287.52, -500.20, -51.16, -470.98, 0.000, 0.000, 0.000, 18:47:47.740, 1567561667740
122, -307.97, -492.29, -52.57, -478.70, 0.000, 0.000, 0.000, 18:47:47.740, 1567561667740
123, -309.18, -484.36, -69.83, -494.65, 0.000, 0.000, 0.000, 18:47:47.751, 1567561667751
124, -280.65, -484.52, -44.43, -471.16, 0.000, 0.000, 0.000, 18:47:47.751, 1567561667751
125, -289.03, -480.41, -37.45, -462.65, 0.000, 0.000, 0.000, 18:47:47.752, 1567561667752
126, -300.18, -469.20, -58.64, -480.82, 0.000, 0.000, 0.000, 18:47:47.752, 1567561667752
127, -284.56, -481.22, -59.04, -482.65, 0.000, 0.000, 0.000, 18:47:47.762, 1567561667762
128, -282.41, -485.32, -42.07, -463.18, 0.000, 0.000, 0.000, 18:47:47.762, 1567561667762
129, -308.04, -485.40, -66.88, -486.61, 0.000, 0.000, 0.000, 18:47:47.773, 1567561667773
130, -293.07, -488.47, -78.35, -488.60, 0.000, 0.000, 0.000, 18:47:47.773, 1567561667773
131, -288.33, -500.49, -58.64, -480.32, 0.000, 0.000, 0.000, 18:47:47.785, 1567561667785
132, -304.29, -496.29, -66.20, -482.53, 0.000, 0.000, 0.000, 18:47:47.785, 1567561667785
133, -308.58, -494.59, -91.01, -502.32, 0.000, 0.000, 0.000, 18:47:47.796, 1567561667796
134, -284.66, -493.52, -60.80, -479.20, 0.000, 0.000, 0.000, 18:47:47.796, 1567561667796
135, -299.48, -496.67, -56.61, -476.71, 0.000, 0.000, 0.000, 18:47:47.807, 1567561667807
136, -318.42, -497.75, -85.12, -496.49, 0.000, 0.000, 0.000, 18:47:47.807, 1567561667807
137, -296.85, -498.20, -74.98, -485.59, 0.000, 0.000, 0.000, 18:47:47.818, 1567561667818
138, -302.68, -512.01, -60.24, -477.63, 0.000, 0.000, 0.000, 18:47:47.818, 1567561667818
139, -320.17, -509.35, -90.47, -492.03, 0.000, 0.000, 0.000, 18:47:47.830, 1567561667830
140, -310.55, -501.11, -95.28, -496.03, 0.000, 0.000, 0.000, 18:47:47.830, 1567561667830
141, -294.74, -499.13, -57.36, -471.42, 0.000, 0.000, 0.000, 18:47:47.841, 1567561667841
142, -314.45, -494.42, -63.47, -475.39, 0.000, 0.000, 0.000, 18:47:47.841, 1567561667841
143, -315.85, -489.90, -78.74, -489.18, 0.000, 0.000, 0.000, 18:47:47.842, 1567561667842
144, -291.97, -488.40, -51.19, -473.89, 0.000, 0.000, 0.000, 18:47:47.842, 1567561667842
145, -301.41, -487.47, -42.09, -468.82, 0.000, 0.000, 0.000, 18:47:47.852, 1567561667852
146, -318.17, -487.82, -79.85, -497.20, 0.000, 0.000, 0.000, 18:47:47.852, 1567561667852
147, -292.39, -484.06, -66.01, -485.11, 0.000, 0.000, 0.000, 18:47:47.863, 1567561667863
